# Filename: Nuclei_416_bidi_60x_004.npz
# Voxel size (nm): (108, 108)
# Area quantity: voxels
# Num nuclei detected: 1314
Y           X           AREA       MAJOR_AXIS_LENGTH    MINOR_AXIS_LENGTH
15.46635    658.25962   208.00000  17.59282             15.05925
23.84043    1025.57447  94.00000   11.26215             10.65053
33.11416    1245.18721  219.00000  18.83093             14.95157
36.86010    819.73057   193.00000  19.42962             12.83615
43.67516    1015.38854  157.00000  14.62306             13.74374
46.95556    1083.10000  180.00000  17.12089             13.48642
53.49115    1267.39823  226.00000  18.37889             15.73553
62.59686    770.68063   191.00000  21.37733             11.60667
63.01818    696.40000   110.00000  13.53823             10.46059
73.53509    1257.23246  228.00000  19.24499             15.14290
73.49689    886.12422   161.00000  16.58055             12.57598
80.08696    1191.17787  253.00000  20.41389             16.17609
82.03488    1013.81395  86.00000   11.13490             9.90648
88.65873    722.18254   126.00000  14.00741             11.71076
87.96667    662.91111   90.00000   13.25708             9.31040
100.97596   692.99038   208.00000  19.37978             13.75158
100.51316   1024.06579  76.00000   13.11319             7.82530
105.29952   905.80193   207.00000  18.23513             14.62796
105.41259   722.13287   143.00000  15.33340             11.91019
140.24812   752.00752   133.00000  13.73105             12.52751
198.78788   229.68687   99.00000   13.96990             9.15233
376.77778   634.79798   99.00000   12.53173             10.16518
389.39706   766.41912   136.00000  14.31284             12.08977
422.01087   808.84783   92.00000   12.24180             9.55673
426.69697   473.27273   165.00000  18.06513             11.70175
423.71233   847.05479   73.00000   11.12770             8.34574
429.50741   455.87037   270.00000  19.95313             17.84135
444.85714   848.45055   91.00000   11.82251             9.85806
451.50538   450.79032   186.00000  16.80641             14.13841
449.00775   1685.49612  129.00000  13.18098             12.55302
458.07547   778.88679   53.00000   9.06726              7.42623
479.23810   1609.09524  147.00000  15.03003             12.54482
480.25556   597.07778   90.00000   12.85107             8.89054
482.81905   752.40000   105.00000  13.29805             10.04570
487.31298   610.33588   131.00000  20.81495             8.15166
485.70161   1593.11290  124.00000  13.04643             12.23035
489.84768   429.64901   151.00000  16.13520             12.01716
487.06173   566.98765   81.00000   11.71046             8.92696
487.39000   809.49000   100.00000  12.31613             10.31299
495.40708   562.81416   113.00000  12.84705             11.41792
494.01724   1634.30172  116.00000  13.62997             11.05178
494.23457   602.20988   81.00000   11.25490             9.18070
497.27273   777.67273   55.00000   9.09631              7.71472
503.56061   681.10606   66.00000   9.93026              8.58114
505.11364   573.68182   88.00000   11.22431             9.99123
505.08602   621.83871   93.00000   11.27733             10.53143
503.84211   918.70175   57.00000   9.82279              7.37512
508.16760   386.03352   179.00000  16.97186             13.43148
510.55903   420.29861   288.00000  21.90078             17.20743
507.23596   583.22472   89.00000   14.70290             7.71486
508.65049   810.65049   103.00000  14.32486             9.19138
512.36620   823.59859   142.00000  15.15732             12.22373
510.94792   613.01042   96.00000   13.26759             9.17929
516.00000   697.42135   178.00000  16.19561             14.20028
512.83051   738.64407   59.00000   9.49631              7.88548
513.13793   774.26437   87.00000   11.95611             9.31672
516.03448   667.93103   145.00000  14.70478             12.63405
522.93162   777.70940   117.00000  13.86113             10.77265
524.13636   758.69697   66.00000   9.81975              8.55568
526.92208   718.93506   77.00000   11.43807             8.60796
531.33929   806.61607   112.00000  12.05075             11.82645
536.93564   1516.40594  202.00000  20.17273             12.85185
535.83962   697.75472   106.00000  16.16260             8.38012
535.67424   363.95455   132.00000  13.41742             12.59868
537.17600   756.35200   125.00000  14.68927             10.83343
542.91304   373.32174   115.00000  13.92204             10.68845
548.08597   1298.46154  221.00000  21.76445             13.08082
544.42169   715.18072   83.00000   10.56550             10.02600
547.79720   1625.10490  143.00000  17.04128             10.71983
547.03306   863.00826   121.00000  14.33334             10.78220
551.22340   677.73404   94.00000   17.53666             6.90228
555.13592   369.34951   206.00000  19.24401             13.66735
552.93243   702.21622   74.00000   14.31460             6.69820
562.01299   1312.83550  231.00000  17.99358             16.66225
563.31507   609.98630   73.00000   10.03441             9.26144
568.67308   700.50962   104.00000  12.76990             10.45810
568.14286   691.68571   70.00000   11.35608             7.81873
574.44255   1503.25957  235.00000  21.26863             14.27555
571.47159   1627.28977  176.00000  19.01934             11.95062
573.17105   531.97368   76.00000   10.79388             8.98316
571.74359   632.74359   39.00000   7.30297              6.80488
576.93805   341.90265   113.00000  12.95981             11.21504
580.51822   1321.60324  247.00000  22.50721             14.40769
581.77095   352.13966   179.00000  16.31234             14.15700
578.52055   686.21918   73.00000   9.99028              9.33222
578.05556   583.02778   36.00000   8.52670              5.38623
581.96154   521.21795   78.00000   11.46947             8.74575
581.59677   618.70968   62.00000   10.57469             7.43792
583.04255   635.88298   94.00000   15.19555             7.86023
581.43333   604.48333   60.00000   10.25822             7.43147
586.61881   326.61881   202.00000  16.35396             15.75735
583.44262   715.81967   61.00000   9.97971              7.77320
585.56122   1448.26531  98.00000   14.21705             8.86379
587.04478   705.29851   67.00000   10.30059             8.30166
593.96215   870.72240   317.00000  26.80815             15.32706
590.09091   940.48485   33.00000   7.32359              5.67174
593.70455   527.59091   88.00000   11.22763             9.98419
599.07742   1446.24516  155.00000  16.30282             12.20467
598.56164   668.04110   73.00000   11.12668             8.32225
603.11047   1601.25000  172.00000  19.09732             11.75148
604.82759   1330.65517  261.00000  24.95246             13.42870
605.85987   377.38217   157.00000  15.44163             13.01545
605.14530   470.74359   117.00000  14.83058             10.10360
611.34091   323.23106   264.00000  22.57202             15.09072
608.45902   541.32787   61.00000   9.72339              7.96945
613.50952   602.51905   210.00000  18.15271             15.21890
615.00000   1577.80989  263.00000  23.51988             14.52000
617.02857   1617.26286  175.00000  22.24094             10.14828
612.19444   485.79167   72.00000   10.84734             8.45460
612.97403   516.02597   77.00000   11.18243             8.74586
613.73913   706.13043   69.00000   10.46884             8.40283
614.98148   622.94444   54.00000   8.75736              7.94390
615.27778   800.01852   54.00000   10.00179             6.88947
625.87923   364.37681   207.00000  22.19318             11.88801
624.22845   824.34483   232.00000  19.26191             15.45070
625.53299   1437.98985  197.00000  17.56142             14.42445
629.56701   1527.29381  194.00000  18.87076             13.28546
626.15152   669.91919   99.00000   12.03618             10.45008
627.90323   713.17204   93.00000   12.01676             9.90307
630.44444   1389.15556  225.00000  25.98345             11.36062
631.01031   538.92784   97.00000   13.45651             9.15121
632.25926   685.21481   135.00000  17.21006             10.10537
637.17368   798.53684   190.00000  18.72226             12.95839
637.52432   1572.91892  185.00000  16.86821             14.04231
636.79630   551.48148   54.00000   9.41990              7.31840
640.84116   1407.70397  277.00000  23.94721             14.94453
641.57277   286.34742   213.00000  19.02274             14.30740
638.53846   489.75000   52.00000   9.60824              6.94237
644.93651   335.64021   189.00000  17.03457             14.19758
648.97097   840.62258   310.00000  21.49185             18.55457
646.94071   1360.23320  253.00000  25.84376             12.78385
650.88372   1545.35271  258.00000  22.60659             15.00926
653.22517   304.01987   151.00000  14.13117             13.65113
650.76000   623.24000   50.00000   8.26056              7.69415
657.70833   691.37500   72.00000   10.59702             8.69756
658.82278   596.54430   79.00000   10.50377             9.65600
665.84305   1355.71300  223.00000  19.75034             14.69683
665.38824   1562.20000  170.00000  23.22447             9.73391
663.09722   575.50000   72.00000   10.69987             8.70667
667.06286   260.65714   175.00000  16.54624             13.45907
673.07865   797.33333   267.00000  23.02490             15.33030
671.41803   758.67213   122.00000  18.34628             9.01800
672.59363   816.05578   251.00000  18.46235             17.47495
670.18033   1530.36885  122.00000  12.61173             12.35345
672.53416   776.57143   161.00000  16.31386             12.56016
671.65341   1474.47727  176.00000  17.45991             12.97702
672.91160   1507.22652  181.00000  21.41484             10.85287
681.03583   321.18567   307.00000  25.91283             16.87680
670.76087   612.97826   46.00000   9.59726              6.25652
675.87755   451.03061   98.00000   11.77175             10.66501
677.25664   1317.39823  113.00000  14.00635             10.29912
679.12409   681.48905   137.00000  14.19286             12.34216
681.60938   419.09375   64.00000   9.88448              8.30451
686.00000   446.29032   62.00000   10.41997             7.60378
685.70455   541.94318   88.00000   11.73027             9.57495
687.22000   524.04000   50.00000   9.17132              6.92003
692.45494   768.07725   233.00000  17.90455             16.97469
689.18033   700.95082   61.00000   10.26590             7.59766
689.52830   652.56604   53.00000   9.18076              7.31043
694.22472   1320.67416  178.00000  16.14339             14.10980
693.50000   585.13793   58.00000   9.50153              7.79275
703.61279   730.58249   297.00000  28.42236             13.65540
695.51515   487.51515   33.00000   6.95366              6.10041
699.42254   395.32394   71.00000   10.74075             8.42460
704.86517   815.84644   267.00000  22.01727             15.50241
702.42169   618.39759   83.00000   11.23402             9.49259
711.38732   745.04930   284.00000  26.49095             14.89546
708.45588   242.34559   272.00000  19.58299             17.78564
714.25000   653.16860   172.00000  20.09930             11.13784
718.14113   311.75403   248.00000  23.31354             13.57293
713.06452   578.95161   62.00000   11.28845             7.05387
721.07186   695.71856   167.00000  15.61962             13.87868
719.22111   853.34673   199.00000  20.16866             12.66208
721.93805   993.81416   226.00000  21.01096             13.73245
721.97222   487.45833   72.00000   9.77883              9.44581
726.11656   1309.17178  163.00000  19.10099             11.00178
722.34437   1346.04636  151.00000  16.01622             12.04788
725.36214   718.09877   243.00000  23.19213             13.42876
725.44444   562.43137   153.00000  18.61109             10.51420
724.31122   619.85204   196.00000  21.48147             11.82843
728.41989   1368.33702  181.00000  18.74342             12.40307
731.71488   879.42975   242.00000  19.24137             16.06783
735.54430   302.06329   158.00000  16.82098             11.96819
737.82301   693.61947   226.00000  21.19855             14.05104
736.68212   671.32450   151.00000  17.44907             11.30624
740.86538   251.12308   260.00000  20.61806             16.11192
738.06771   1381.06771  192.00000  18.53212             13.75065
742.22881   234.54661   236.00000  19.47063             15.46199
740.10798   548.04225   213.00000  22.39996             12.41378
741.80795   979.48013   302.00000  22.36491             17.44041
744.93802   929.48760   242.00000  18.70914             16.58098
747.78889   511.81667   180.00000  17.63931             13.33514
747.18548   480.90323   124.00000  15.14551             10.45931
753.28095   619.18571   210.00000  20.18056             13.80947
753.58261   722.33043   230.00000  20.55340             14.38891
753.52294   523.36697   109.00000  15.07302             9.45287
754.42128   762.31064   235.00000  19.75917             15.28009
751.97333   309.22667   75.00000   11.85010             8.16956
752.72308   472.64615   65.00000   10.17306             8.14400
759.78605   746.09302   215.00000  19.71049             14.07959
756.74227   295.83505   97.00000   13.18972             9.43110
759.69076   573.50201   249.00000  20.60906             15.67035
760.86667   1448.91111  180.00000  17.62346             13.02061
761.32298   457.62112   161.00000  15.64831             13.10860
760.34783   509.99130   115.00000  14.01950             10.61845
763.76596   896.20973   329.00000  27.51193             15.42055
762.59322   675.21469   177.00000  18.24601             12.59059
766.14362   243.26064   188.00000  17.21321             13.94179
763.81522   561.03261   92.00000   13.13853             8.92667
760.55882   656.52941   34.00000   6.94516              6.22530
764.97761   1323.00746  134.00000  15.12969             11.30751
767.98141   630.51301   269.00000  20.54332             16.71411
767.34043   1285.73759  141.00000  16.88457             10.74055
769.46296   718.70833   216.00000  19.71656             14.54572
773.39615   828.40769   260.00000  24.30718             14.28467
773.98324   702.43017   179.00000  15.52173             14.80295
776.48077   1474.29327  208.00000  20.51157             13.14304
779.32365   595.09129   241.00000  25.29506             12.33867
775.65986   815.96599   147.00000  18.60095             10.20599
779.90050   1270.66169  201.00000  21.69033             11.96585
775.99048   438.59048   105.00000  13.11010             10.25729
779.91985   1254.27481  262.00000  22.04077             15.31477
779.14706   676.69412   170.00000  15.22301             14.47165
780.04027   533.73826   149.00000  15.28995             12.63828
784.21290   653.40000   155.00000  17.01420             12.11901
787.53797   618.57278   316.00000  30.82732             13.67428
792.13333   481.40000   135.00000  14.56906             12.07914
791.21577   580.71369   241.00000  26.97438             11.71810
791.89970   925.49240   329.00000  30.53839             13.98822
794.31720   812.31183   186.00000  17.65097             13.56895
795.33571   423.22857   140.00000  14.16853             12.60099
795.84848   664.17576   165.00000  16.38443             12.86472
796.89634   292.78049   164.00000  15.90916             13.27034
795.29630   329.57407   108.00000  13.35508             10.47754
795.18824   731.52941   85.00000   12.51946             8.71509
796.98611   679.16667   72.00000   13.11818             7.00153
798.12500   1260.00000  136.00000  14.77032             11.70467
800.78750   1291.98750  240.00000  19.58001             16.67828
800.28148   750.14815   135.00000  15.15976             11.48654
800.65789   438.80263   76.00000   11.12138             8.70136
804.26163   556.24419   172.00000  19.22436             11.51755
805.54825   836.57456   228.00000  21.41662             13.64237
805.08374   725.79803   203.00000  20.68737             12.92788
810.47312   792.04301   279.00000  22.44738             16.20397
812.76667   610.09000   300.00000  26.36750             14.99581
809.94175   565.11650   103.00000  12.34866             10.65324
812.25676   706.56757   148.00000  19.89569             10.34048
816.20117   248.65015   343.00000  32.72702             14.04423
810.98182   1488.21818  55.00000   9.40999              7.47320
816.44162   219.64975   197.00000  18.20624             13.82772
815.64493   302.85507   138.00000  15.88812             11.12497
813.64423   483.84615   104.00000  11.88332             11.17338
817.50862   1476.91810  232.00000  18.80783             15.98335
816.76630   577.96196   184.00000  17.64578             13.39334
813.10256   625.74359   39.00000   7.62099              6.51489
818.98246   1252.92398  171.00000  19.94953             11.38588
821.09163   696.78486   251.00000  22.61119             14.29745
821.14634   645.62439   205.00000  17.27820             15.77078
823.94643   547.00893   112.00000  16.52097             8.86463
825.11180   1490.37267  161.00000  18.48791             11.38479
821.08333   631.86111   36.00000   8.51814              5.40775
827.08550   876.21561   269.00000  21.96625             15.98555
823.50794   414.01587   63.00000   9.98293              8.09975
828.43902   749.41951   205.00000  18.88575             13.95339
832.92491   826.45051   293.00000  27.15885             13.87515
831.21244   1285.84974  193.00000  19.02593             12.96779
832.14970   487.37725   167.00000  18.62549             11.45521
832.04297   574.87500   256.00000  22.80445             14.58989
832.10753   511.16129   186.00000  18.55498             12.80010
831.42574   1254.24752  101.00000  12.57086             10.48497
831.53731   417.88060   67.00000   10.87041             7.92325
833.90821   1298.70048  207.00000  20.01263             13.80932
840.47561   786.29675   246.00000  24.06392             13.93470
840.09706   600.40294   340.00000  24.29967             18.49390
842.56287   668.49102   334.00000  22.49279             18.98812
836.68750   795.43750   48.00000   8.67242              7.12957
842.40606   241.92727   165.00000  17.55970             12.02475
849.16547   914.21942   278.00000  25.74480             13.93500
848.32616   648.05376   279.00000  23.54732             15.26414
849.21622   731.52252   222.00000  20.06157             14.23303
852.01246   220.12773   321.00000  21.51295             19.35102
852.36652   847.93213   221.00000  20.58000             14.10804
851.67982   1521.96053  228.00000  20.75595             14.13527
855.67901   744.52263   243.00000  22.01504             14.42171
854.36683   1249.03015  199.00000  19.09297             13.33618
856.96262   708.80374   214.00000  18.67140             14.60930
856.18627   1288.10784  204.00000  16.45440             16.07463
858.69312   277.96825   189.00000  17.22981             14.10250
856.33333   324.82222   45.00000   8.16571              6.98044
857.92308   358.85714   91.00000   11.95058             9.70181
860.58784   634.06757   148.00000  15.92708             11.95812
861.35616   245.80365   219.00000  20.24998             14.08146
861.85887   896.22984   248.00000  18.27058             17.60102
861.67114   949.90940   298.00000  24.65114             15.44387
864.21076   693.02691   223.00000  20.00462             14.73803
863.68449   1800.30481  187.00000  17.21263             14.09305
867.56087   473.26957   230.00000  23.13854             12.71951
868.12264   437.25943   212.00000  17.81871             15.18337
870.98446   596.45596   193.00000  16.06627             15.49781
870.04211   630.91579   95.00000   15.58057             8.01897
869.54255   1782.25000  188.00000  19.11613             12.61593
870.00000   836.96403   139.00000  14.92907             12.06494
877.68551   858.85159   283.00000  28.71504             12.68591
873.99567   811.61905   231.00000  21.35358             14.03108
874.51515   1702.83333  198.00000  19.67360             12.99946
873.64211   1742.70526  190.00000  19.91314             12.40144
876.32298   520.14907   161.00000  15.47459             13.45628
876.71711   670.35526   152.00000  17.46985             11.25912
877.03896   711.77922   154.00000  15.86885             12.45246
875.22747   765.47210   233.00000  19.87402             15.19694
873.57333   379.25333   75.00000   11.55981             8.26426
877.90761   571.88043   184.00000  17.70376             13.28102
881.30287   787.11749   383.00000  29.91173             16.90573
880.14110   227.27607   163.00000  16.47158             12.67365
879.09319   1531.93548  279.00000  25.66401             14.41894
883.28571   753.21875   224.00000  19.83836             14.61445
880.54497   829.56085   189.00000  18.89972             12.84831
881.50000   613.68391   174.00000  17.79318             12.50332
882.09434   379.35849   53.00000   8.66037              7.81432
883.41237   598.90722   97.00000   13.41448             9.33884
885.15038   1731.12782  133.00000  13.57926             12.51056
889.13095   912.22024   168.00000  17.03190             12.60412
884.97143   632.82857   35.00000   7.63458              5.83352
892.78992   489.26471   238.00000  26.26711             11.60889
892.31197   866.58547   234.00000  18.83128             15.92878
898.59091   1280.39773  264.00000  29.96891             11.25415
891.20276   1597.06452  217.00000  21.26220             13.10384
891.11628   416.19767   86.00000   11.04791             9.98998
895.91986   583.58885   287.00000  20.26034             18.55495
891.61702   715.87234   47.00000   8.95729              6.82064
895.07143   843.26190   42.00000   8.22792              6.56675
898.86222   1633.95556  225.00000  22.04458             14.21216
897.37838   345.63514   74.00000   10.51532             8.98237
897.50000   387.73684   76.00000   10.62823             9.09806
908.76731   513.24654   361.00000  34.94997             15.23287
901.86364   453.28788   132.00000  15.87430             10.68367
903.26364   707.15455   220.00000  20.08468             13.96823
903.11111   1264.22222  171.00000  16.52587             13.22638
899.64706   1555.50980  51.00000   10.80021             5.99575
903.95946   1598.50676  148.00000  18.31301             10.57591
904.27742   637.09032   155.00000  17.25211             11.71034
900.54286   755.11429   35.00000   8.62338              5.12964
903.14286   401.97143   70.00000   9.63631              9.24905
904.30928   440.56701   97.00000   13.94478             8.89472
904.66055   652.29358   109.00000  14.72576             9.46083
903.80952   842.71429   42.00000   10.27718             5.22973
910.80816   535.07755   245.00000  23.46731             13.55307
907.86777   880.70248   121.00000  13.76951             12.03481
910.67333   738.95333   150.00000  15.58168             12.35701
914.53448   930.45862   290.00000  23.87855             16.19460
909.31148   1619.75410  122.00000  15.10183             10.36886
919.79835   483.55556   243.00000  23.25646             13.40908
916.06763   953.68116   207.00000  18.64695             14.18042
923.76610   1255.40339  295.00000  29.69004             14.71304
920.50000   759.55093   216.00000  22.74161             12.23686
915.04762   826.01587   63.00000   9.22809              8.82324
919.18644   844.74011   177.00000  17.75145             12.91412
918.26087   422.34783   92.00000   11.99800             9.82352
918.83810   776.26667   105.00000  12.28090             11.06188
920.62963   795.75309   162.00000  14.93621             13.82469
926.86099   573.53812   223.00000  21.95240             13.30572
925.19497   713.34591   159.00000  16.74626             12.24523
930.28125   447.99479   192.00000  18.15721             13.55727
926.92366   545.64122   131.00000  16.10816             10.48992
929.22346   813.81564   179.00000  18.15492             12.70751
930.09091   500.85455   110.00000  14.66094             9.77588
933.35581   687.75655   267.00000  22.81717             15.42501
931.66667   639.47778   90.00000   12.35061             9.46978
931.00000   887.67890   109.00000  14.64206             9.53396
934.48503   992.95210   167.00000  19.04322             11.18695
938.73978   463.71375   269.00000  22.23137             15.49278
940.89189   769.99550   222.00000  26.25531             11.56505
931.76543   859.32099   81.00000   11.16408             9.25068
937.10553   752.87437   199.00000  20.96365             12.15867
936.16892   709.75000   148.00000  17.83309             10.66873
942.48421   258.08772   285.00000  24.97578             14.76789
935.93846   871.18462   65.00000   10.91474             7.67921
940.62332   925.75336   223.00000  18.73464             15.40582
937.92958   967.21127   71.00000   12.76633             7.09309
940.25373   325.91045   67.00000   9.96573              8.55206
942.30303   785.22727   66.00000   11.49405             7.34540
945.41085   408.74419   129.00000  14.72977             11.21734
946.59310   544.97241   145.00000  16.37286             11.30147
947.46711   611.23026   152.00000  17.86332             11.02793
945.64167   820.37083   240.00000  26.87347             11.70307
953.26936   236.18182   297.00000  22.77728             16.78917
951.94845   479.07732   194.00000  18.32623             13.52855
956.87748   949.48675   302.00000  23.98642             16.33784
958.00966   903.77778   207.00000  19.66307             13.62479
953.61864   673.88136   118.00000  17.60288             8.56442
954.49231   708.57692   130.00000  15.54812             10.75634
956.58586   660.02020   99.00000   11.50998             11.07011
959.16327   548.76531   98.00000   15.16687             8.43735
962.58120   1003.90171  234.00000  24.83939             12.17014
960.26119   810.49254   134.00000  14.17827             12.24515
961.72619   518.24405   168.00000  17.41743             12.29420
960.98571   864.85000   140.00000  16.63442             10.83203
972.66901   756.53052   426.00000  30.91655             18.26193
966.75342   796.97260   146.00000  14.88461             13.27209
966.59829   627.36752   117.00000  15.51991             9.85343
967.74444   462.54444   90.00000   11.95204             9.59543
966.79412   721.08824   68.00000   10.65655             8.11607
970.25000   1260.21795  156.00000  17.62120             11.55766
966.22222   659.57778   45.00000   8.20681              7.03840
969.53448   705.62069   116.00000  14.12693             10.57837
970.38956   826.00402   249.00000  27.46487             12.14402
978.69395   434.79715   281.00000  24.87598             16.23877
972.94444   518.34722   72.00000   12.99490             7.02683
973.40741   1090.00000  27.00000   8.14887              4.51904
980.00529   660.70899   189.00000  17.49837             13.81689
980.26577   731.22523   222.00000  19.94617             14.96637
979.30769   858.43077   65.00000   10.62652             7.79799
984.96694   1237.31405  242.00000  19.60343             16.26518
987.96787   1010.12450  249.00000  26.41773             12.37660
984.40278   608.17361   144.00000  16.35760             11.26035
980.35185   847.25926   54.00000   8.91028              7.71211
988.89236   980.19792   288.00000  23.11952             16.29616
983.86154   1257.70769  130.00000  14.66020             11.59396
985.27097   372.49032   155.00000  17.89943             11.09062
987.28095   451.52381   210.00000  22.11617             12.39059
983.79245   634.79245   106.00000  13.73867             9.93862
986.37209   867.68992   258.00000  23.81694             14.07977
983.50000   930.13014   146.00000  15.08142             12.34905
989.65537   621.81921   177.00000  20.50079             11.63987
992.13063   1496.54505  222.00000  27.10575             10.74520
995.43015   653.68750   272.00000  21.09005             16.54526
992.31776   907.11215   214.00000  23.79259             11.65318
995.48521   599.11834   169.00000  17.95189             12.09769
994.10119   793.42262   168.00000  16.02569             13.49298
1001.54074  357.24815   270.00000  27.30080             13.03653
995.78378   816.04054   148.00000  15.64113             12.15162
996.54815   877.74074   135.00000  16.28733             10.83800
996.65385   749.20513   78.00000   13.39368             7.68405
998.19271   762.21875   192.00000  17.37689             14.33878
997.37037   1746.77778  108.00000  13.08223             10.57337
997.92157   583.17647   102.00000  13.72549             9.54835
995.32432   714.29730   37.00000   7.90194              5.93456
995.15789   852.84211   19.00000   5.27157              4.50054
1001.53216  247.88304   171.00000  16.82018             12.94358
1002.32479  718.20513   117.00000  13.44635             11.15917
1005.75962  403.19231   208.00000  17.14957             15.54865
1002.27778  528.40741   54.00000   8.82869              7.78989
1008.89388  687.97959   245.00000  21.06781             15.23829
1009.13441  557.55914   186.00000  19.85307             12.18341
1011.10837  1223.88670  203.00000  22.42150             11.70981
1011.88820  744.22360   161.00000  19.76839             11.09024
1006.90909  808.15909   88.00000   12.26302             9.16462
1013.27442  756.82326   215.00000  21.32125             13.38507
1008.40741  386.92593   27.00000   6.42150              5.26541
1010.59494  472.24051   79.00000   12.40802             8.14174
1014.58993  572.80576   139.00000  16.29216             11.23929
1014.81304  585.51739   230.00000  21.18022             14.68922
1015.24118  722.78824   170.00000  19.16903             11.49246
1015.50190  1259.84791  263.00000  21.65244             15.50823
1016.77119  657.71186   118.00000  17.53272             8.88326
1024.40889  664.03111   225.00000  30.61046             10.52776
1018.16848  1036.87500  184.00000  21.92932             10.70395
1018.57031  1000.96484  256.00000  23.06766             14.29498
1021.10638  1474.07801  282.00000  22.12579             16.46619
1017.78862  926.12195   123.00000  15.34061             10.20468
1020.55639  382.27820   133.00000  16.48266             10.38918
1018.06369  860.62420   157.00000  18.22947             11.00023
1024.66429  955.24286   280.00000  27.13611             13.44934
1020.12605  797.67227   119.00000  14.83291             10.33856
1021.79769  634.90173   173.00000  16.18846             13.84859
1024.02791  522.42326   215.00000  17.64814             15.56409
1026.92276  604.21138   246.00000  21.84297             14.67012
1020.74545  450.56364   55.00000   8.49385              8.24998
1022.46667  493.94667   75.00000   10.26853             9.26286
1025.49091  778.16364   165.00000  14.83697             14.19405
1026.94393  479.00935   107.00000  14.01537             9.80578
1027.81395  720.09302   86.00000   10.89250             10.37487
1038.37986  553.06865   437.00000  26.07479             22.31562
1027.44898  676.55102   49.00000   9.37359              6.64335
1035.11058  222.22596   208.00000  23.47232             11.38314
1030.33654  863.41346   104.00000  12.18664             10.91999
1033.35366  902.71951   164.00000  16.22924             12.91947
1030.98551  444.88406   69.00000   9.60835              9.11029
1035.77778  368.88889   117.00000  13.45390             11.09500
1036.70588  639.05882   119.00000  13.19489             11.79311
1039.29193  612.61491   161.00000  17.69804             12.10974
1038.86624  855.36306   157.00000  16.47577             12.17655
1038.59494  1228.12025  158.00000  18.11727             11.46249
1038.48701  980.93506   154.00000  15.76746             12.81609
1039.09091  879.12727   165.00000  15.91620             13.20990
1045.00000  574.00000   235.00000  18.98382             16.52508
1040.96032  934.27778   126.00000  13.91678             11.52981
1039.97059  282.61765   34.00000   7.03405              6.13033
1043.51799  719.95683   139.00000  13.70556             13.01937
1044.15200  647.92000   125.00000  13.42265             12.06783
1045.83529  524.50000   170.00000  16.24361             13.34583
1046.24167  707.18333   120.00000  14.45253             10.75417
1051.73355  928.01316   304.00000  25.91744             16.12909
1048.56667  467.90000   90.00000   11.22554             10.35699
1052.90055  971.11602   181.00000  19.58933             12.04667
1053.89320  1045.50971  206.00000  24.00146             11.08565
1050.91453  218.48718   117.00000  13.35916             11.17589
1053.86792  348.71226   212.00000  19.32207             14.05907
1055.75661  768.29365   378.00000  30.16483             17.31039
1050.93333  1013.03333  60.00000   10.67551             7.12352
1051.65714  912.48571   35.00000   8.51854              5.23249
1052.74074  416.46296   54.00000   8.53523              8.03560
1055.96585  282.99512   205.00000  21.18458             12.37993
1061.18155  666.78869   336.00000  25.40998             17.48866
1058.00000  718.89881   168.00000  19.65807             11.03960
1058.97674  127.87209   172.00000  15.56043             14.07696
1060.96063  803.23228   254.00000  24.34650             13.89037
1060.58305  864.55593   295.00000  23.98871             16.01106
1059.81951  534.97561   205.00000  23.86503             11.28598
1059.25000  613.51786   112.00000  13.63293             10.55575
1065.59361  1025.20091  219.00000  21.95247             12.76936
1065.86810  164.37423   326.00000  27.66051             15.93343
1064.57738  229.35714   168.00000  15.27271             14.02169
1065.24286  737.64286   70.00000   10.50227             8.50399
1069.61307  783.14070   199.00000  19.40063             13.22699
1069.90667  823.60000   225.00000  21.42868             13.54946
1069.80791  198.42373   177.00000  15.83665             14.28118
1069.04918  404.68852   183.00000  17.65814             13.23508
1065.28947  1054.63158  38.00000   8.08596              5.99558
1071.16062  555.38860   193.00000  17.52006             14.23202
1071.45399  55.23926    163.00000  15.79011             13.18132
1069.47368  84.58647    133.00000  16.27677             10.43508
1078.03636  277.54545   220.00000  21.23318             13.32420
1076.45753  613.66027   365.00000  30.15478             15.58757
1079.54709  845.61435   223.00000  23.04707             12.48050
1081.71143  503.88000   350.00000  26.77973             18.47571
1082.19011  953.64639   263.00000  20.58015             16.54330
1080.52201  89.23899    159.00000  15.98940             12.71244
1082.14634  690.12683   205.00000  20.31688             13.04290
1081.84564  744.67114   149.00000  15.70909             12.15665
1079.06897  715.48276   58.00000   9.96408              7.39630
1085.10435  246.06957   230.00000  18.22876             16.21110
1084.25385  550.23846   130.00000  15.56581             10.73077
1083.01379  702.82759   145.00000  16.87966             11.10973
1086.81498  395.64317   227.00000  24.83724             12.16110
1084.74242  590.68182   132.00000  14.54597             11.71531
1087.51643  823.81221   213.00000  17.85053             15.58082
1089.71308  668.27848   237.00000  25.13435             13.35659
1086.79570  1146.26882  93.00000   12.55097             9.47457
1088.20000  561.90323   155.00000  16.30618             12.56939
1090.08397  644.02290   131.00000  17.74021             9.41837
1091.92857  534.28571   168.00000  16.80633             13.12822
1096.81786  1038.91786  280.00000  23.17896             15.80362
1094.42254  716.50704   142.00000  17.80059             10.35700
1096.84884  432.15891   258.00000  22.64454             14.58276
1098.93609  611.88346   266.00000  22.38072             15.22541
1096.10233  735.75814   215.00000  19.16584             14.48446
1094.93069  593.05941   101.00000  12.76224             10.27165
1098.98667  707.48667   150.00000  21.36796             9.16177
1095.75316  1400.88608  158.00000  17.05438             11.89474
1097.33333  698.56522   138.00000  16.41236             10.96662
1094.30189  355.41509   53.00000   9.24941              7.30258
1096.35616  747.89041   73.00000   11.82495             7.88814
1103.27126  564.26316   247.00000  24.67024             13.51835
1105.46801  772.59933   297.00000  27.50241             14.77995
1101.72277  967.95545   202.00000  17.42664             14.88974
1103.16525  1744.18220  236.00000  21.50236             14.50198
1102.03509  805.62573   171.00000  16.23046             13.75627
1103.47101  1389.64493  138.00000  16.17668             11.44086
1102.54839  667.22581   155.00000  15.97933             12.47609
1102.82883  795.63964   111.00000  16.34293             8.77660
1108.62963  211.33333   270.00000  23.30205             14.97471
1104.96078  1054.16340  153.00000  15.28041             12.89444
1102.51515  945.90909   33.00000   7.32359              5.67174
1107.78289  399.88816   152.00000  15.09880             12.95004
1107.86014  631.36364   143.00000  14.56173             12.52980
1111.32735  1379.29596  223.00000  19.12471             15.57246
1111.18049  491.17073   205.00000  17.29486             15.31451
1108.03670  1771.20183  109.00000  12.40052             11.28666
1111.45226  698.77387   199.00000  16.88850             15.58940
1116.40323  1459.63548  310.00000  31.18918             13.65206
1112.11538  260.45192   208.00000  21.28300             12.84880
1113.17617  368.61140   193.00000  22.14826             11.26473
1115.88158  1245.71053  228.00000  22.14248             13.30895
1117.67704  865.40078   257.00000  21.93104             15.03785
1119.50249  529.97512   201.00000  21.55402             11.99300
1112.97143  1397.82857  35.00000   7.24960              6.15885
1118.36816  1230.34826  201.00000  20.54988             12.56471
1123.60000  741.66341   205.00000  20.66210             14.10492
1125.93885  1307.49281  278.00000  26.67489             13.65615
1115.50000  1358.50000  34.00000   7.68458              5.63656
1122.95855  681.61658   193.00000  17.95601             14.27524
1122.28390  1324.89831  236.00000  18.47156             16.33309
1120.42381  1482.99048  210.00000  21.51441             12.65541
1122.68692  403.45794   214.00000  24.83135             11.23471
1124.52195  471.01951   205.00000  18.96883             13.91522
1122.91156  664.96599   147.00000  14.56946             12.99066
1128.13182  696.03182   220.00000  20.52169             14.99887
1126.36527  552.58084   167.00000  15.18887             14.07398
1127.25000  568.64706   136.00000  14.23040             12.28711
1126.81564  988.22346   179.00000  19.63326             11.71578
1133.66667  508.87847   288.00000  22.74287             17.50946
1130.35749  804.74396   207.00000  16.97943             15.79355
1132.80357  1778.45536  224.00000  21.68256             13.22077
1132.31056  447.26708   161.00000  18.14828             11.54759
1132.30263  820.25658   152.00000  15.35054             12.81652
1133.69545  1702.02273  220.00000  20.78030             13.51079
1136.52778  1039.02778  144.00000  17.71941             10.36008
1138.86538  1530.06923  260.00000  23.41669             14.97176
1135.60309  468.35567   194.00000  25.06286             9.92598
1137.32973  577.21622   185.00000  20.87290             12.01336
1138.70297  747.28218   202.00000  18.07422             14.53924
1138.63372  230.69186   172.00000  16.79709             13.08137
1138.03265  381.15918   245.00000  20.65205             15.26824
1139.51724  1478.85714  203.00000  17.20152             15.51841
1146.28641  540.37136   412.00000  32.73710             18.81504
1139.63946  784.29932   147.00000  16.79041             11.17140
1138.06557  1589.90164  183.00000  18.17098             12.95290
1144.02778  638.96875   288.00000  24.61504             15.26851
1139.95686  1016.11765  255.00000  23.63780             14.18751
1141.32886  292.73154   149.00000  15.61600             12.15209
1140.64331  588.29299   157.00000  17.36117             12.38433
1138.51969  660.09449   127.00000  15.78004             10.26301
1151.07937  678.19444   252.00000  26.71383             12.77954
1150.54268  776.31707   164.00000  19.97264             10.70866
1151.80805  327.00619   323.00000  25.37344             16.42945
1153.23853  738.04587   218.00000  21.25133             13.35975
1154.74545  212.65091   275.00000  21.08113             16.70153
1154.04217  1501.72892  166.00000  15.47845             13.73006
1153.81908  1561.96711  304.00000  26.55958             14.81803
1153.12687  1791.97761  134.00000  14.15997             12.07216
1158.00000  633.11494   174.00000  18.28512             12.41317
1156.96403  767.17266   139.00000  15.03612             11.81422
1157.99291  1383.51064  141.00000  15.36602             11.67633
1162.03984  448.89641   251.00000  22.22020             14.87992
1159.19196  1526.97768  224.00000  21.88754             13.14407
1156.33010  1613.39806  103.00000  12.54576             10.45913
1160.93165  1059.37770  278.00000  21.58092             16.56012
1162.68595  571.61157   242.00000  28.18539             11.37223
1158.80702  819.85965   57.00000   10.39526             7.16298
1164.08678  1396.19421  242.00000  23.96348             12.96287
1163.97744  645.16541   133.00000  15.85312             10.78112
1164.53333  488.51852   135.00000  14.86320             11.62034
1163.65421  624.42991   107.00000  13.64430             10.12401
1169.02586  704.74138   232.00000  22.28363             13.48360
1171.83092  200.44444   207.00000  21.20846             12.68244
1165.78889  436.43333   90.00000   12.02580             9.51818
1173.48327  731.48327   269.00000  26.23095             13.23349
1169.65891  504.92248   129.00000  16.27692             10.22022
1171.50000  1794.00435  230.00000  24.75434             12.20641
1170.81022  1373.16788  137.00000  16.39115             10.78370
1171.93284  337.56716   134.00000  14.34818             11.93578
1173.87927  1338.42257  381.00000  34.53085             15.41704
1172.33562  1438.04795  146.00000  17.31326             10.84896
1172.61039  471.04545   154.00000  17.75807             11.16614
1175.21557  351.89222   167.00000  15.43423             13.84231
1177.51822  238.80972   247.00000  24.20156             13.14568
1183.17375  1741.49421  259.00000  29.17492             12.40629
1176.69540  367.24713   174.00000  15.35676             14.51936
1177.72093  777.79070   129.00000  16.63711             10.42153
1177.79070  443.62016   129.00000  13.60725             12.09219
1179.32812  576.06771   192.00000  18.76962             13.11762
1183.29581  387.58901   382.00000  25.10350             21.18220
1179.25773  1706.11856  194.00000  19.24237             13.01506
1182.38849  629.73381   139.00000  16.72204             10.64762
1184.26415  1466.34906  212.00000  19.75627             13.93183
1181.65584  793.87662   154.00000  15.23045             13.24588
1185.50917  1611.68349  218.00000  19.58030             14.25322
1188.70647  489.52736   201.00000  22.46823             11.50198
1185.50898  1501.76048  167.00000  14.84781             14.36939
1187.80800  1534.80800  125.00000  16.37436             9.85072
1188.11450  554.73282   131.00000  15.78815             10.64669
1185.89423  675.86538   104.00000  13.29709             10.18800
1186.75000  524.01852   108.00000  12.93864             10.75110
1190.51759  697.32663   199.00000  19.24803             13.54992
1189.71831  1445.90845  142.00000  15.72211             11.50518
1193.21229  617.63687   179.00000  16.49987             14.09808
1193.94040  830.64901   151.00000  17.44850             11.10390
1194.28571  678.54037   161.00000  18.73377             11.69113
1194.15172  787.59310   145.00000  14.81029             12.60474
1198.23183  1402.54325  289.00000  23.00093             16.70644
1197.02222  606.29444   180.00000  18.27122             12.91900
1199.83807  1256.25383  457.00000  25.75526             22.98824
1194.88272  152.35185   162.00000  16.78697             12.29461
1198.09278  568.09794   194.00000  19.40185             12.75053
1202.90171  336.37179   234.00000  20.79583             14.58384
1199.18692  1583.00935  107.00000  12.92430             10.56313
1201.26027  516.76027   146.00000  14.53233             12.82814
1200.98618  1548.76498  217.00000  22.53393             12.35194
1203.50000  404.64667   150.00000  16.27175             11.92670
1205.36559  222.54839   186.00000  17.51276             13.56737
1204.61307  1654.89447  199.00000  16.99000             15.04641
1205.10274  1829.14384  146.00000  14.89281             12.51652
1205.26429  466.90000   140.00000  15.14357             11.80413
1205.27564  1384.17308  156.00000  20.77581             9.59187
1209.69957  842.21030   233.00000  25.91833             12.35571
1208.56911  1521.64634  246.00000  21.72938             14.77640
1209.80328  1308.73770  183.00000  18.71181             13.23580
1211.62115  415.34802   227.00000  19.51425             15.44008
1210.58216  132.32394   213.00000  23.94007             11.44805
1213.23182  711.12727   220.00000  21.73246             12.94321
1215.07735  307.45304   181.00000  19.02421             12.22818
1215.63905  448.46746   169.00000  21.73141             10.04072
1212.74815  1376.48148  135.00000  14.77503             11.93176
1218.74785  1205.06877  349.00000  32.91623             13.94346
1212.55665  1800.23153  203.00000  25.69496             10.19044
1212.55172  866.53448   58.00000   10.66649             6.97474
1221.37173  535.49215   191.00000  25.66434             9.61505
1216.20714  287.40000   140.00000  14.68587             12.22381
1219.99559  597.81498   227.00000  22.38062             13.39292
1221.66502  739.57143   203.00000  23.26014             11.81987
1220.68440  239.46809   282.00000  23.81739             15.27993
1218.82320  490.45028   362.00000  30.24677             15.53385
1217.93162  518.28205   234.00000  19.09376             15.88512
1218.30693  781.57921   202.00000  18.27208             14.15923
1218.23649  1291.27027  148.00000  16.62199             11.56054
1215.75862  1940.05172  116.00000  16.53328             9.38927
1221.97115  1636.89904  208.00000  24.02265             12.12932
1217.55556  747.86869   99.00000   12.17090             10.44604
1221.89640  644.12613   222.00000  20.18043             14.04880
1221.28671  547.69930   143.00000  14.05499             12.97992
1223.60000  1306.79167  120.00000  12.95464             11.79786
1222.17143  1471.31429  35.00000   7.44650              5.94130
1227.81761  626.29560   159.00000  16.52492             12.52582
1228.07447  367.50532   188.00000  19.24701             12.64640
1232.19209  1569.97740  177.00000  20.47083             11.61173
1231.92973  289.07027   185.00000  18.10947             13.61149
1236.49351  583.12554   231.00000  30.67214             10.02363
1236.71481  761.03333   270.00000  30.89683             11.21541
1230.48000  1443.84500  200.00000  21.51331             11.89565
1234.84135  685.14904   208.00000  21.69135             12.96580
1230.54696  1876.17127  181.00000  16.97000             13.91611
1230.42254  672.26761   71.00000   10.63905             8.55750
1231.21698  1357.78302  106.00000  12.05775             11.18499
1233.05405  1852.77477  111.00000  12.79278             11.13188
1238.70952  357.95238   210.00000  21.69450             12.67170
1241.07224  879.08365   263.00000  27.66773             12.54970
1235.45349  1545.76744  172.00000  17.18935             12.83521
1239.19500  600.61000   200.00000  18.34052             14.09196
1239.88690  864.48214   168.00000  18.20524             11.77882
1240.22981  1965.36025  161.00000  19.95472             11.05966
1241.86726  625.54425   226.00000  19.56327             14.77174
1241.05732  503.50955   157.00000  20.51266             10.01869
1239.73228  525.95276   127.00000  14.51451             11.17034
1241.65641  1390.58462  195.00000  18.68697             13.34796
1243.20000  1789.70909  165.00000  18.10852             11.96673
1240.91837  734.45578   147.00000  16.08553             11.69345
1245.11290  550.18145   248.00000  22.63454             14.33847
1243.60284  461.48227   141.00000  16.45360             11.02536
1245.65179  799.63393   112.00000  13.81013             10.51783
1248.13953  266.24806   258.00000  20.74196             15.98771
1246.24026  1898.74675  154.00000  15.18071             13.16869
1247.53503  1170.42675  157.00000  16.68851             12.43222
1249.74634  288.10244   205.00000  17.20286             15.20449
1249.46667  1160.86667  90.00000   13.68653             8.69348
1248.03571  1338.77381  84.00000   11.47500             9.46470
1252.80894  1358.99187  246.00000  25.15957             12.68395
1250.90244  1486.17561  205.00000  19.68765             13.50138
1252.33333  714.27700   213.00000  17.56386             15.64688
1249.30682  1841.45455  88.00000   12.71331             8.93998
1250.52903  418.19355   155.00000  16.57143             12.03225
1250.31034  496.58128   203.00000  23.15747             11.25416
1252.14493  812.89855   138.00000  15.85443             11.11560
1253.03947  1503.32456  228.00000  18.07264             16.41199
1253.91057  595.19919   246.00000  19.84730             15.99761
1253.98039  514.71242   153.00000  15.50145             12.67581
1263.32000  399.40800   375.00000  32.28445             15.08816
1259.38387  677.95161   310.00000  23.75809             17.24127
1259.13362  1425.40948  232.00000  21.06309             14.11279
1254.68800  1613.10400  125.00000  14.17930             11.24424
1259.00000  1818.32759  232.00000  18.51289             16.13641
1258.97129  1291.97129  209.00000  18.18328             14.89685
1255.17241  1648.32184  87.00000   11.63103             9.58747
1260.57597  338.31095   283.00000  23.11637             15.95071
1261.09881  636.64427   253.00000  23.02764             14.18474
1260.00840  1339.41176  119.00000  14.98466             10.26571
1261.66812  1659.38428  229.00000  19.06994             15.51681
1262.42667  614.60889   225.00000  21.56599             13.75925
1264.34940  580.47390   249.00000  28.84253             11.15461
1262.24324  800.44595   148.00000  14.01133             13.71476
1265.54255  1683.31383  188.00000  18.89107             12.72923
1268.25688  891.63609   327.00000  25.98368             17.11083
1264.68421  1379.71930  171.00000  17.72349             12.35837
1267.15584  311.31818   154.00000  16.80138             11.68710
1272.72906  1451.98522  406.00000  27.18608             19.37738
1265.28889  1618.82963  135.00000  16.78394             10.27022
1271.99283  431.10036   279.00000  25.19672             14.75544
1268.07186  811.89222   167.00000  15.41242             13.86970
1269.76154  1486.47308  260.00000  19.95611             16.91340
1267.21311  451.84426   122.00000  14.52710             10.90854
1272.85771  770.69565   253.00000  22.22585             14.87604
1271.27203  276.83908   261.00000  27.47959             12.50018
1270.81988  486.34161   161.00000  17.40814             11.83998
1268.27928  1396.10811  111.00000  13.42607             10.55229
1269.68712  1970.40491  163.00000  16.11392             12.91425
1270.76866  606.15672   134.00000  15.70377             10.92822
1273.15789  718.10048   209.00000  19.09837             14.12498
1273.38605  242.06977   215.00000  18.16810             15.08417
1273.64677  368.53731   201.00000  19.91362             13.08891
1273.60227  1806.09659  176.00000  18.06729             12.52206
1273.29000  1860.78000  200.00000  19.87473             12.84348
1281.82946  689.84109   258.00000  24.44424             14.30120
1280.12367  203.25795   283.00000  22.77099             15.90707
1279.83492  1265.39048  315.00000  28.66833             14.11024
1282.89046  518.18021   283.00000  20.00581             18.56826
1281.75385  1287.71282  195.00000  17.84249             13.99240
1281.38967  1547.56338  213.00000  18.54629             14.68804
1280.28689  1098.46721  122.00000  14.39634             10.89449
1283.10092  1903.99083  218.00000  18.22878             15.36905
1285.50000  299.45635   252.00000  21.27032             15.46692
1282.67133  564.93007   143.00000  15.64573             11.88784
1283.64322  1503.63819  199.00000  18.32680             13.88601
1283.15328  1713.21898  137.00000  13.94974             12.65368
1287.81159  418.63285   207.00000  20.07369             13.22432
1289.19188  467.92251   271.00000  33.23861             10.64905
1287.80488  723.92683   205.00000  19.94569             13.22493
1286.64078  1619.27670  206.00000  18.38005             14.40909
1287.24242  355.48485   198.00000  20.07601             12.66865
1288.50000  658.94211   190.00000  17.05377             14.44625
1288.16402  1364.61905  189.00000  17.76358             13.81086
1288.19512  338.03659   164.00000  17.53415             12.13023
1286.76074  1112.68712  163.00000  16.55877             12.86979
1289.12565  1786.15707  191.00000  17.20062             14.37982
1292.49345  824.21834   229.00000  20.20345             14.61770
1289.65385  1691.32308  130.00000  15.84380             10.51456
1287.81579  1968.47368  76.00000   10.26839             9.57551
1288.29412  1636.36765  68.00000   10.06333             8.69788
1288.04545  1653.00000  44.00000   9.67704              5.92023
1290.96454  1752.51773  141.00000  15.93789             11.25090
1291.74453  325.28467   137.00000  14.82728             11.78645
1297.33992  1102.02372  253.00000  22.97965             14.33779
1295.38132  1396.30350  257.00000  22.06160             15.73933
1294.26471  460.17647   102.00000  12.48351             10.68045
1294.66857  1264.70857  175.00000  17.34650             12.99075
1296.93048  1544.27807  187.00000  19.19507             12.46983
1296.42672  1829.90086  232.00000  21.03990             14.08999
1295.33628  2002.79646  113.00000  14.87052             9.89711
1298.60697  678.04478   201.00000  25.83418             10.46682
1298.83137  1475.20392  255.00000  20.71844             15.91332
1299.35000  168.62727   220.00000  21.14090             13.45725
1297.76415  1292.43396  106.00000  13.43001             10.07311
1302.60408  1317.94694  245.00000  20.29317             15.73043
1302.24082  577.28571   245.00000  18.83817             16.70047
1301.56693  600.41732   127.00000  16.78492             9.79670
1303.33505  761.47423   194.00000  17.63428             14.08986
1302.05473  1732.44279  201.00000  20.25128             12.86726
1304.00000  929.16194   247.00000  24.38082             13.01534
1306.41004  1087.92887  239.00000  20.16784             15.22803
1304.83889  490.53333   180.00000  15.38886             14.91587
1312.53261  1325.46739  184.00000  33.35924             8.12918
1304.86755  1425.98675  151.00000  15.93467             12.08804
1305.20571  1700.66286  175.00000  15.95620             14.14056
1300.81481  344.74074   27.00000   7.41371              4.65134
1309.46388  378.19011   263.00000  26.38770             12.79803
1305.77372  528.99270   137.00000  15.49522             11.42212
1309.87833  148.52471   263.00000  21.68432             15.56172
1308.90000  817.40667   150.00000  16.22193             11.88681
1310.11429  465.71429   105.00000  16.46924             8.29982
1309.94000  473.31000   100.00000  13.70271             9.57917
1312.09694  675.84694   196.00000  19.15433             13.25475
1311.77193  775.97807   228.00000  19.72313             15.01755
1313.12903  1514.80184  217.00000  17.98016             15.65597
1310.84167  648.38333   120.00000  14.14730             10.94997
1310.71264  1854.04598  174.00000  17.36973             12.80874
1311.85256  1872.52564  156.00000  16.61569             11.96883
1314.90104  1277.11458  192.00000  18.23427             13.51153
1314.90556  1437.97778  180.00000  16.49912             14.04380
1316.09016  1572.88934  244.00000  23.78111             13.22075
1318.94737  611.94258   209.00000  24.45905             11.53204
1317.55093  1353.54167  216.00000  20.25124             13.91653
1316.85802  1496.08642  162.00000  15.95222             12.96523
1316.59574  1749.13830  188.00000  18.97959             12.81967
1322.95781  439.89873   237.00000  23.18362             13.20714
1324.93774  425.17510   257.00000  23.62749             13.90373
1320.63710  556.25000   248.00000  27.22450             12.10080
1322.15441  602.48529   136.00000  14.11266             12.47495
1320.92913  1788.09449  127.00000  13.83819             11.69283
1321.39370  1451.26772  127.00000  14.71274             11.29713
1325.35437  1260.28641  206.00000  18.04634             14.67903
1323.98387  635.54839   186.00000  21.38713             11.16690
1327.36593  751.21767   317.00000  27.83885             14.72321
1327.16102  332.74576   236.00000  23.11892             13.25879
1326.55901  681.03106   161.00000  14.79627             13.99043
1327.29530  1146.48322  298.00000  25.16106             15.12956
1326.27815  409.23179   151.00000  15.19170             12.89446
1326.37313  1291.63433  134.00000  13.78940             12.43942
1328.12081  1460.61074  149.00000  15.40852             12.49645
1330.96356  511.30364   247.00000  20.54341             15.39291
1330.77273  855.39610   154.00000  16.20083             12.35678
1335.19841  1385.73016  252.00000  24.95170             13.26645
1332.25882  310.84706   170.00000  17.58817             12.36259
1336.89928  550.30935   278.00000  21.84949             16.40801
1339.64935  1090.68506  308.00000  28.13977             14.24011
1336.31361  1530.47929  169.00000  20.79586             10.58129
1337.20884  353.87149   249.00000  21.03606             15.54860
1339.02252  414.29730   222.00000  23.23753             12.33468
1341.57565  827.74170   271.00000  22.76449             15.63557
1342.62547  1308.47940  267.00000  22.65867             15.22774
1339.56376  331.02013   149.00000  16.55140             11.54127
1344.64646  566.35354   198.00000  20.20379             12.81135
1343.86290  625.21774   124.00000  14.12779             11.26188
1345.42282  1362.16779  149.00000  15.44896             12.34211
1347.05882  1416.32941  255.00000  23.12138             14.30707
1342.05825  1493.77670  103.00000  15.20590             8.75149
1342.97248  1639.21101  109.00000  12.16330             11.41177
1342.23750  1834.23750  80.00000   11.52922             8.85844
1345.41212  1915.94545  165.00000  16.80193             12.50732
1347.19577  1678.59788  189.00000  17.58640             13.71458
1351.77686  1172.90083  363.00000  22.99928             20.51719
1346.35052  1555.87629  97.00000   12.81106             9.74395
1346.87671  491.31507   146.00000  17.59390             10.61758
1352.18500  288.41500   200.00000  17.65317             14.52523
1350.11468  1286.51835  218.00000  19.29099             14.62465
1353.67273  750.40455   220.00000  24.12844             12.32420
1351.18018  647.82883   111.00000  12.78268             11.09876
1358.05660  393.74340   265.00000  25.53033             13.53748
1357.29499  702.49558   339.00000  22.61189             19.86400
1357.75319  724.76596   235.00000  24.03802             12.66790
1350.66667  1211.31944  72.00000   12.25007             7.51833
1355.90455  1351.63182  220.00000  19.13320             14.76256
1353.51875  1492.60000  160.00000  16.46227             12.49112
1355.19444  1840.50000  144.00000  14.11241             13.02184
1356.52778  1382.79167  72.00000   11.83205             7.80073
1359.08333  1300.21569  204.00000  17.33411             15.18793
1361.69333  1417.08667  150.00000  20.42916             9.69456
1364.61277  342.83830   235.00000  22.14698             13.64240
1360.87571  517.79096   177.00000  18.84917             12.16876
1361.11765  634.25210   238.00000  23.44348             13.10418
1370.04748  453.44214   337.00000  28.91842             15.19382
1368.06250  1097.16071  224.00000  19.12388             14.98862
1368.69675  841.84116   277.00000  26.26497             13.54556
1369.53219  494.94421   233.00000  22.10452             13.61873
1368.46667  1925.70909  165.00000  16.55481             12.72875
1370.91304  1212.07826  230.00000  17.49074             16.84542
1372.50327  763.56209   306.00000  22.65123             17.36527
1369.87081  1636.37799  209.00000  19.64818             13.62760
1372.20942  1710.05759  191.00000  17.40068             14.14809
1373.06500  538.85500   200.00000  18.86992             13.49378
1372.50718  1371.92823  209.00000  19.78109             13.69222
1375.80935  380.43525   278.00000  27.45489             13.23275
1373.44388  1265.16837  196.00000  18.11175             13.81922
1371.08772  1399.00000  57.00000   9.88258              7.35330
1376.39706  1240.11765  204.00000  17.45812             14.91411
1376.58642  473.55556   162.00000  16.21352             12.86454
1375.95455  684.75974   154.00000  16.23868             12.17505
1378.93458  1334.65732  321.00000  27.21935             15.39634
1379.16592  1588.13453  223.00000  20.24093             14.06888
1378.61753  1289.57769  251.00000  20.73622             15.57000
1378.32164  1942.55556  171.00000  15.97633             13.70575
1382.70543  319.49225   258.00000  21.75789             15.28323
1379.97692  1400.78462  130.00000  13.90203             11.98261
1386.91983  1444.87764  237.00000  25.06659             12.34041
1382.94309  1613.22764  123.00000  14.55092             10.93103
1394.12814  444.14070   398.00000  39.80097             13.65426
1385.53672  546.27119   177.00000  16.19248             13.96831
1383.18310  633.18310   71.00000   10.01196             9.21025
1392.00752  858.38346   266.00000  23.35142             14.91721
1389.12571  338.11429   175.00000  18.96279             12.05686
1384.36066  1307.95082  61.00000   10.78922             7.33490
1385.05405  1382.43243  37.00000   7.45712              6.25160
1388.24265  1392.61029  136.00000  13.75454             12.67348
1390.15951  643.41104   163.00000  17.18900             12.26815
1392.14226  1094.73222  239.00000  21.58812             14.38840
1398.39630  1297.48519  270.00000  30.35757             11.51189
1397.15464  517.84192   291.00000  24.86308             15.30402
1391.68182  1502.17273  110.00000  13.24181             10.56981
1394.13725  1744.42157  102.00000  13.20619             9.87077
1395.54167  397.10714   168.00000  15.58733             13.83112
1396.14094  1416.25503  149.00000  15.37212             12.39954
1398.48117  588.34728   239.00000  20.18486             15.34622
1402.97000  775.21333   300.00000  23.82603             16.05836
1398.84466  1367.16019  206.00000  16.85792             15.62125
1397.20952  1572.33333  105.00000  12.50927             10.70335
1398.00000  1719.62353  85.00000   12.86199             8.44750
1400.29577  1522.78873  142.00000  16.50247             11.14461
1400.98667  383.83333   150.00000  14.38217             13.36111
1402.21930  1652.92982  114.00000  15.17905             9.76446
1402.73333  329.90000   210.00000  18.15279             14.83616
1399.14000  1546.76000  50.00000   9.15967              6.95020
1405.75234  1353.00467  214.00000  19.55878             14.14033
1407.63348  558.39819   221.00000  18.71896             15.18842
1409.35461  1084.24113  282.00000  22.49814             16.25499
1404.93750  1328.32143  112.00000  13.32633             10.72949
1406.89147  1758.98450  129.00000  14.77781             11.30126
1407.42029  1230.66667  207.00000  19.95392             13.22055
1407.68047  1260.57396  169.00000  15.43949             13.95243
1410.22140  1427.47601  271.00000  21.41867             16.20181
1419.14628  839.45479   376.00000  35.20548             13.86513
1414.56195  506.45133   226.00000  20.94869             13.85864
1412.54088  1561.79245  159.00000  16.37803             12.52118
1413.03252  1211.15447  123.00000  14.71780             10.69134
1417.91758  1272.19780  182.00000  18.70973             12.68651
1418.23810  525.04762   210.00000  19.49908             13.75516
1424.59289  1122.18577  253.00000  24.69484             13.39299
1426.45270  1141.27703  296.00000  29.16256             13.15850
1421.33103  1328.97241  145.00000  17.74943             10.84019
1417.77049  1624.88525  61.00000   9.50254              8.20590
1424.76923  873.94551   312.00000  27.05634             15.64112
1423.10405  491.28324   173.00000  19.36833             11.35911
1424.58865  1544.02837  141.00000  17.10746             10.55034
1426.13415  430.62195   164.00000  16.71673             12.69245
1429.36630  1084.76557  273.00000  27.45100             12.91684
1425.67380  1690.14439  187.00000  16.93167             14.11220
1422.71605  1641.88889  81.00000   12.26103             8.44923
1428.89634  804.93902   164.00000  16.02700             13.27299
1428.91905  448.30476   210.00000  22.56751             11.85839
1429.14583  1526.99306  144.00000  15.20985             12.18777
1435.44643  1380.19048  336.00000  23.88324             18.66018
1432.84426  1430.90164  244.00000  19.26950             16.31491
1435.59516  327.06574   289.00000  23.99973             15.48946
1435.29097  1300.47157  299.00000  20.81423             18.79610
1436.28509  586.41228   228.00000  19.95233             15.02011
1436.09524  1490.10053  189.00000  17.19811             14.22282
1440.51376  665.55505   218.00000  21.86770             12.98940
1438.54054  1201.83784  185.00000  18.67004             12.71300
1442.47059  414.35747   221.00000  18.34034             15.39521
1443.48085  393.55745   235.00000  21.25819             14.28035
1441.39669  1625.85124  121.00000  16.69444             9.26081
1442.53143  1405.10286  175.00000  16.68281             13.51450
1445.06667  485.12727   165.00000  17.32142             12.17456
1443.10983  508.65318   173.00000  16.91655             13.09421
1446.42544  438.97807   228.00000  22.56189             12.88224
1448.22124  1552.79646  226.00000  17.95291             16.09482
1450.23494  803.42169   166.00000  18.15734             11.93475
1445.26250  1956.15000  80.00000   13.29120             8.83638
1447.95238  1441.45714  105.00000  13.30581             10.03585
1447.73248  1594.94268  157.00000  15.95432             12.52594
1453.38767  1346.17621  227.00000  18.69779             15.77995
1454.64236  625.71181   288.00000  26.10972             14.31847
1455.44667  470.50000   150.00000  14.89515             12.86062
1454.33523  530.94318   176.00000  17.59128             12.82281
1459.10288  495.29630   243.00000  22.91089             13.62409
1454.96923  1448.92308  65.00000   11.59059             7.23735
1460.98095  1655.28571  210.00000  25.52743             10.60414
1461.08943  1389.83740  246.00000  20.64394             15.29149
1458.67257  1852.04425  113.00000  13.21219             10.97588
1462.70157  1219.18325  191.00000  18.47936             13.23830
1460.14130  1871.18478  92.00000   11.91665             10.28705
1469.24299  383.27103   214.00000  19.10980             14.29542
1471.13514  421.99228   259.00000  21.36147             15.96076
1465.25000  662.39286   56.00000   10.14906             7.07803
1474.41016  825.53516   256.00000  28.76614             12.56921
1472.10233  896.38605   215.00000  21.58475             12.90006
1470.41554  1361.19932  296.00000  21.44870             18.10519
1473.03030  473.77922   231.00000  22.50816             13.25930
1469.20690  1412.06897  174.00000  18.06126             12.31838
1469.20290  1712.02899  138.00000  16.26446             11.13089
1471.22707  317.68122   229.00000  21.22037             13.89906
1467.43333  362.04444   90.00000   12.43986             9.25157
1473.16290  1515.35294  221.00000  18.62885             15.19990
1473.82682  961.57542   179.00000  18.99499             12.16940
1473.74825  1640.82517  143.00000  15.13574             12.07004
1475.35233  546.21244   193.00000  17.07356             14.48826
1480.17608  1175.04319  301.00000  21.19254             19.39273
1476.47024  1628.91667  168.00000  15.66740             13.71574
1477.41714  562.59429   175.00000  18.07104             12.39710
1481.13253  655.23293   249.00000  20.93986             15.41357
1478.83333  1556.08730  126.00000  19.70859             8.28588
1485.32258  884.63441   279.00000  28.64480             12.57129
1486.56250  1096.43125  320.00000  30.99396             13.55124
1485.62454  1283.47584  269.00000  25.59553             13.46404
1485.97203  611.81818   286.00000  23.76686             15.60596
1484.29534  1247.67876  193.00000  18.43990             13.38359
1481.39815  1352.30556  108.00000  13.09030             10.62592
1483.55932  1576.03390  118.00000  16.23780             9.44860
1481.35714  1925.17857  84.00000   11.74125             9.29780
1483.54118  446.21176   170.00000  17.57668             12.33304
1484.73718  589.05128   156.00000  16.12291             12.39238
1494.27306  853.57196   271.00000  28.67130             12.73001
1487.48673  957.66372   113.00000  14.09294             10.19986
1492.17167  577.00429   233.00000  18.36930             16.24339
1488.94326  1398.32624  141.00000  15.25458             11.80384
1494.63673  317.51429   245.00000  20.59689             15.42183
1492.14078  782.86893   206.00000  20.08419             13.43789
1497.67364  671.60251   239.00000  24.86316             12.90523
1492.08730  1454.43651  126.00000  14.28170             11.36295
1499.73759  1506.10638  141.00000  20.75397             9.03209
1494.84699  1665.54098  183.00000  18.27295             12.85538
1498.94505  823.12088   182.00000  16.13639             14.43723
1496.07407  592.40741   27.00000   6.42150              5.26541
1498.50769  1722.38462  65.00000   10.81055             8.04379
1503.53514  639.72973   185.00000  16.21866             14.51203
1503.53488  1868.14729  129.00000  14.67652             11.38818
1507.54348  458.77391   230.00000  19.21947             15.54876
1505.00000  919.72340   141.00000  16.62528             11.05211
1503.57407  1385.69136  162.00000  16.26244             12.70541
1506.55973  1262.95563  293.00000  26.56534             14.68890
1511.12346  1222.43827  324.00000  25.32803             16.50779
1511.62397  1125.92975  242.00000  19.35691             15.99049
1508.79866  610.98658   149.00000  15.69407             12.27090
1510.27778  1544.31746  126.00000  16.35418             9.89044
1510.38498  1693.75117  213.00000  19.06786             14.26784
1509.75000  621.75000   92.00000   13.16081             8.93026
1509.93939  1323.83636  165.00000  16.46896             12.80511
1509.61905  1733.10317  126.00000  13.91746             11.54711
1511.36538  886.50962   104.00000  14.12200             9.47714
1515.15789  1288.33518  361.00000  24.36736             19.78000
1515.30653  1428.34673  199.00000  19.54554             13.05543
1515.95775  630.87324   142.00000  14.13745             12.95558
1515.96078  1514.23529  102.00000  13.27756             9.80055
1515.56164  1411.10959  73.00000   10.24983             9.09932
1523.70652  1230.33152  184.00000  17.72891             13.45626
1524.45413  1194.31651  218.00000  20.33634             13.79896
1532.03594  1248.19873  473.00000  31.09048             20.65160
1525.51010  1392.98485  198.00000  18.18202             14.36448
1525.09489  1483.56934  137.00000  16.64600             10.70250
1528.12757  1149.89712  243.00000  21.07232             14.93486
1531.07143  1641.68067  238.00000  20.76480             14.70325
1525.41379  1471.06897  29.00000   6.72846              5.50063
1529.93662  1530.20423  142.00000  15.18208             11.96171
1530.00000  1613.31293  147.00000  14.09009             13.33444
1531.75163  1367.03922  153.00000  16.92271             11.69476
1532.91327  646.22449   196.00000  16.74954             14.98011
1531.34395  1672.06369  157.00000  15.37847             13.02289
1537.64630  1297.08039  311.00000  23.98998             18.45956
1534.07101  1331.97041  169.00000  20.48182             10.57396
1535.76687  885.57669   163.00000  16.21773             12.85491
1535.91566  1708.96386  166.00000  15.42877             13.92187
1539.70711  789.96234   239.00000  21.15251             14.54629
1537.72131  1449.13115  61.00000   8.99393              8.64327
1543.39560  1517.10440  182.00000  17.39841             13.35654
1542.49074  1689.47222  108.00000  12.71114             11.03053
1546.56696  688.04911   224.00000  17.56679             16.26821
1547.85809  1317.74917  303.00000  33.19426             12.33927
1544.07792  1610.44156  77.00000   10.66367             9.26686
1552.97059  827.80515   272.00000  29.69704             11.79206
1546.34921  1398.69312  189.00000  23.82990             10.17626
1548.29565  1487.09565  115.00000  15.65351             9.42688
1547.22222  1847.15385  117.00000  14.04431             10.96454
1553.31441  869.60699   229.00000  21.15122             14.29068
1548.90667  1476.80000  75.00000   11.41540             8.43501
1550.94400  1221.94400  125.00000  15.82359             10.16394
1561.39095  1277.21399  243.00000  30.14196             10.75982
1558.27160  1663.64815  162.00000  16.41954             12.59936
1558.54762  1608.15476  168.00000  15.82209             13.63134
1559.80978  1501.69565  184.00000  18.59949             12.76876
1559.31884  1620.31884  69.00000   9.87194              8.90133
1564.94667  1536.21333  150.00000  15.24016             12.68821
1568.55446  700.70792   202.00000  16.67410             15.46531
1570.61594  1521.69565  138.00000  14.23203             12.39384
1575.19355  1394.39516  248.00000  21.72728             14.79500
1571.46000  1577.80000  150.00000  16.69933             11.55105
1576.82591  1170.73279  247.00000  27.78973             11.75727
1574.38636  1289.14773  88.00000   11.39353             9.99977
1576.12088  1342.90110  182.00000  15.91932             14.58843
1580.47917  1277.41146  192.00000  22.40573             11.01593
1575.73276  1317.72414  116.00000  16.34139             9.20151
1578.00000  1497.03982  226.00000  25.30064             11.53344
1582.02083  1301.92188  192.00000  18.72423             13.06580
1579.40476  1358.64286  42.00000   8.40587              6.30292
1589.69204  795.46367   289.00000  21.49557             17.91562
1590.42105  883.67763   304.00000  27.49680             14.46795
1585.34000  1379.33000  200.00000  21.98130             11.80976
1586.22826  1617.04348  184.00000  18.73051             12.58535
1584.43000  1317.93000  100.00000  13.64816             9.47264
1589.64286  1174.77679  112.00000  13.33810             10.74243
1594.91096  1371.31507  146.00000  17.38991             10.89863
1598.25166  1164.33775  151.00000  17.92694             11.19713
1601.51786  1278.14286  168.00000  16.29851             13.11953
1605.42353  833.42353   255.00000  22.78924             14.68175
1601.66138  1657.35979  189.00000  16.35879             14.71772
1604.74096  1337.25301  166.00000  19.26715             11.30431
1606.77181  1504.12081  149.00000  15.58609             12.19887
1605.60465  1545.09302  86.00000   12.43995             8.90278
1608.84236  1325.33498  203.00000  19.10850             13.72935
1608.31414  1362.41361  191.00000  17.12051             14.31568
1606.05000  1391.95000  40.00000   8.20241              6.43743
1609.41732  1400.79528  127.00000  14.42374             11.27024
1609.86765  1446.08824  136.00000  13.38129             13.03641
1618.88760  1224.44961  258.00000  22.94228             14.66150
1616.36885  1245.87705  122.00000  13.39215             11.70128
1623.96992  873.89474   133.00000  14.78182             11.56664
1626.04639  1639.39691  194.00000  17.37582             14.33113
1630.60000  1184.58039  255.00000  19.74653             16.59457
1628.79048  1217.69524  105.00000  13.51685             10.10900
1636.48347  1276.65289  242.00000  20.26442             15.64110
1640.75000  804.54054   296.00000  28.04939             13.58019
1636.93636  1571.89091  220.00000  22.52028             13.18677
1641.94468  1132.96170  235.00000  22.54423             13.65378
1642.31746  875.09524   126.00000  19.50181             8.50123
1636.50704  1408.74648  71.00000   10.74185             8.42734
1642.47706  840.05505   218.00000  18.51910             15.18796
1640.10714  1546.45536  112.00000  13.94436             10.22166
1641.20000  1256.22400  125.00000  13.80252             11.65571
1645.99658  1211.56164  292.00000  21.73480             17.24848
1645.71806  1319.88106  227.00000  20.91834             13.91635
1646.92893  1371.14213  197.00000  17.02659             14.82918
1645.80392  1518.37255  102.00000  11.99449             10.86650
1647.18590  1630.57051  156.00000  15.09097             13.37964
1653.50521  1121.41667  192.00000  23.56098             10.50090
1650.23944  1350.57042  142.00000  14.69933             12.41095
1653.83929  1340.42857  56.00000   11.70067             6.28145
1660.21642  1520.99254  134.00000  14.98989             11.50149
1658.82192  1616.42466  146.00000  18.16778             10.58905
1661.66667  1193.39286  84.00000   12.40850             8.68885
1661.70833  1371.91667  72.00000   10.26845             8.91803
1661.19130  1706.13913  115.00000  14.32544             10.28674
1667.54902  810.64052   153.00000  16.68993             11.67508
1670.63019  1154.23774  265.00000  23.08761             14.92491
1667.97087  1422.25243  103.00000  12.52802             10.53133
1671.35060  1275.52590  251.00000  20.11938             15.95530
1670.82979  1604.45390  141.00000  14.86478             12.17200
1672.97908  1330.97071  239.00000  20.15251             15.15602
1669.27778  1659.20833  72.00000   10.05690             9.17949
1673.20000  1532.51429  140.00000  13.81839             13.01681
1673.03540  1353.01770  113.00000  13.10295             11.00463
1676.46009  1313.59155  213.00000  17.09623             15.97977
1678.86782  1218.75287  174.00000  17.86667             12.58658
1677.75714  1294.20000  70.00000   10.96165             8.14695
1680.70940  1573.96154  234.00000  20.78977             14.65676
1681.02083  1616.32292  96.00000   12.55159             9.77832
1684.34737  1345.82632  190.00000  16.28777             14.92721
1685.51515  1256.42424  33.00000   8.50459              5.07526
1685.70000  1504.02000  50.00000   8.30478              7.67230
1699.53916  1113.68675  332.00000  31.61023             13.79081
1694.54857  1135.92286  350.00000  21.76041             20.83014
1691.64655  1535.87931  116.00000  13.69030             10.87860
1695.16000  829.00000   225.00000  21.16181             14.42650
1693.39252  1276.88785  107.00000  14.75681             9.27966
1697.33557  891.57383   298.00000  21.74345             17.56421
1695.49738  1607.95812  191.00000  16.14205             15.20240
1699.19792  1266.41146  192.00000  19.10904             13.00355
1696.68323  1324.45342  161.00000  17.07858             12.06911
1696.88889  1371.57407  54.00000   8.46359              8.12455
1699.55844  1648.76623  154.00000  15.20094             13.07530
1702.91129  1623.39516  124.00000  14.33632             11.08794
1710.03810  1338.90476  315.00000  25.48365             15.89058
1705.70109  839.22826   184.00000  16.89816             13.89768
1707.26923  1317.99038  104.00000  12.78058             10.39024
1705.78846  1426.40385  52.00000   9.51852              6.98867
1712.96465  1532.26263  198.00000  20.07390             12.78399
1716.85333  1291.58000  150.00000  19.14205             9.97139
1714.65546  1576.58824  119.00000  13.12188             11.68253
1719.57627  1192.50282  177.00000  18.16018             12.64605
1721.84360  1216.37441  211.00000  18.68029             14.69420
1723.70109  1156.48913  184.00000  16.87056             14.04173
1724.47032  1132.72146  219.00000  17.98105             15.70307
1730.08947  1282.31579  190.00000  19.56276             12.47466
1727.12281  1469.54386  57.00000   9.16063              7.91757
1730.82775  1563.04785  209.00000  19.95869             13.65573
1733.23529  1262.52101  119.00000  14.62316             10.41458
1735.72249  1114.83254  209.00000  16.92143             15.84807
1742.10762  1232.52466  223.00000  18.48161             15.52293
1741.78286  1256.56571  175.00000  18.11881             12.43059
1744.59556  1277.32444  225.00000  21.03527             13.88998
1740.59322  1379.81356  59.00000   9.68962              7.77605
1745.86842  1217.41228  228.00000  18.66105             15.57991
1747.30952  1307.63095  168.00000  16.21537             13.27429
1757.74783  1096.37391  230.00000  20.15290             14.58758
1760.43629  906.21236   259.00000  19.73670             17.12887
1761.98246  1293.06579  228.00000  20.08077             14.54770
1759.47482  1564.71942  139.00000  16.46095             10.75418
1755.68333  1638.40000  60.00000   10.32745             7.40130
1762.44928  1624.60870  69.00000   11.09951             7.91566
1774.79225  1183.53873  284.00000  20.97267             18.19136
1770.42857  1637.35714  56.00000   8.94112              8.11997
1782.36269  905.85492   193.00000  21.20441             11.81874
1779.47059  1547.57353  136.00000  15.51665             11.19155
1781.13115  1135.05738  122.00000  13.29709             11.88085
1787.75918  1113.88163  245.00000  24.97606             12.60869
1787.76812  1631.84058  138.00000  15.96894             11.03164
1787.00746  1674.35075  134.00000  14.74243             11.58121
1791.47458  1576.37288  118.00000  15.62715             9.68650
1788.42857  1238.75000  56.00000   9.24687              7.83670
1791.63415  1292.74390  82.00000   11.23520             9.34665
1797.05752  1129.76549  226.00000  19.90397             14.49796
1794.62097  1566.11290  124.00000  14.60015             10.89291
1799.44672  1176.63934  244.00000  20.01552             15.63749
1797.93333  1224.71667  120.00000  15.37348             10.02166
1805.60837  1087.66540  263.00000  20.02729             16.81618
1814.58685  913.37089   213.00000  25.25906             11.05751
1809.87636  1255.48000  275.00000  24.48227             14.48574
1812.10101  1302.26768  198.00000  17.33442             14.67307
1812.15217  1200.52174  46.00000   9.12689              6.40449
1817.19136  1717.69136  162.00000  15.71687             13.17146
1819.00000  1285.00917  109.00000  13.39738             10.42381
1816.68966  1176.10345  29.00000   6.40132              5.78349
1824.09524  1125.40000  210.00000  18.71509             14.35178
1820.77215  1617.54430  79.00000   10.43689             9.77373
1820.23810  1268.45238  42.00000   8.21046              6.50474
1827.35437  1588.73786  206.00000  17.30852             15.22344
1833.30882  1229.96324  136.00000  20.31471             8.58180
1829.54348  1207.55435  92.00000   11.86040             10.06680
1832.94954  1286.44495  218.00000  20.57056             13.76845
1835.36000  1164.50000  50.00000   8.87460              7.24209
1835.62264  1444.33962  53.00000   9.51759              7.37724
1843.88934  1078.35656  244.00000  20.82349             14.99578
1841.27536  1563.18841  138.00000  15.80319             11.19328
1845.50239  1152.30144  209.00000  17.97859             14.92584
1842.45161  1173.29032  31.00000   6.85750              5.70016
1845.79487  1204.02564  78.00000   10.91216             9.12786
1851.29771  1596.78626  131.00000  15.41128             10.93387
1858.40449  1574.50562  89.00000   12.92937             9.22926
1865.64679  1211.61009  218.00000  19.84611             14.05417
1865.94631  1551.95973  149.00000  16.88377             11.24083
1870.86408  1093.50162  309.00000  21.39419             18.70914
1869.93258  1606.85393  178.00000  16.94444             13.38539
1872.20833  1189.63542  192.00000  17.68811             13.86156
1874.36420  1636.30864  162.00000  16.83251             12.44972
1876.46237  1248.53763  186.00000  19.05375             12.57432
1876.43671  1280.86709  158.00000  19.66784             10.34684
1872.84483  1171.98276  58.00000   10.02134             7.43779
1877.42742  1161.32258  124.00000  15.11453             10.47863
1880.89286  1662.12500  56.00000   9.19081              7.88912
1888.49315  1211.27854  219.00000  19.33630             14.50327
1893.16794  1265.25573  262.00000  21.23725             15.95607
1897.94215  1298.19008  121.00000  14.56325             10.81967
1899.80337  1130.19663  178.00000  15.92409             14.84359
1921.23750  1180.48333  240.00000  19.68750             15.92782
1931.83945  1273.69266  218.00000  18.11794             15.45221
1937.04000  1150.28000  125.00000  15.21639             10.54730
1951.64356  1287.78713  202.00000  17.91007             14.42345
1957.30583  1154.89320  206.00000  18.47870             14.23535
1955.52427  1450.50485  103.00000  13.14200             10.15302
1962.03604  1193.52703  222.00000  18.58987             15.26719
1964.60294  1621.09559  136.00000  14.46968             12.05212
1967.22764  1548.71545  123.00000  16.04231             9.78630
1971.82184  1177.81034  174.00000  16.47338             13.58514
1974.94737  1291.23158  190.00000  18.49540             13.47149
1985.87037  1254.67593  216.00000  17.62800             15.67874
1995.86466  1655.99248  133.00000  13.88649             12.30988
1999.76042  1278.61979  192.00000  17.14161             14.35330
2008.73154  1292.41611  149.00000  14.94041             12.77062
2034.42786  1293.96020  201.00000  17.36391             14.79875