# Filename: Nuclei_bidi_pfa_006.npz
# Voxel size (nm): (108, 108)
# Area quantity: voxels
# Num nuclei detected: 1366
Y           X           AREA       MAJOR_AXIS_LENGTH    MINOR_AXIS_LENGTH
12.68636    592.61364   220.00000  19.21896             14.71352
15.29293    779.23232   99.00000   13.29911             10.05681
16.96804    733.11416   219.00000  18.11476             15.71306
18.98639    358.67347   147.00000  15.43726             12.54905
28.92958    533.87324   142.00000  17.84019             10.73285
44.75000    831.70833   240.00000  21.82411             14.18028
59.61181    299.29114   237.00000  19.14538             15.99101
72.22951    708.69945   183.00000  16.72114             13.98499
76.02762    745.16022   181.00000  16.78019             13.74078
78.66169    286.30846   201.00000  18.33595             14.00006
83.80632    610.86166   253.00000  20.56444             15.73018
82.80000    669.87407   135.00000  14.70959             11.74959
87.38333    848.55417   240.00000  19.21197             16.01984
93.59868    665.22368   152.00000  16.35915             11.91419
94.86538    740.86538   156.00000  16.80205             11.90490
97.01418    686.26241   141.00000  17.76365             10.35267
100.60697   777.94527   201.00000  22.81989             11.35045
100.81022   235.02190   137.00000  13.87250             12.58514
101.98734   797.79747   79.00000   12.57545             8.52601
106.92748   568.41985   262.00000  19.62495             17.19363
108.17460   279.23413   252.00000  19.01468             16.90866
108.56376   763.59732   149.00000  15.50408             12.33961
109.84286   390.92143   140.00000  13.92584             12.88986
117.23228   621.68504   254.00000  19.60865             16.56897
119.75410   640.03825   183.00000  17.21982             13.65682
127.40964   883.66265   166.00000  15.65207             14.15069
134.25854   687.74146   205.00000  18.50479             14.19927
137.54795   721.75342   292.00000  24.64046             15.14505
146.14800   439.43600   250.00000  19.88460             16.18477
145.09402   767.71795   117.00000  12.49781             12.07091
152.52907   419.83140   172.00000  16.70298             13.26589
151.24060   801.68421   133.00000  14.03119             12.08751
157.10490   771.02098   143.00000  16.42376             11.31155
169.70769   448.74872   195.00000  19.42891             13.20282
173.89712   552.22222   243.00000  19.85405             15.72138
173.49206   1754.48148  189.00000  16.80970             14.45039
178.41228   465.02632   228.00000  19.98419             14.73055
187.02894   596.12219   311.00000  25.50214             15.55779
182.51337   636.35294   187.00000  18.45596             12.89828
184.78261   522.01242   161.00000  15.53387             13.28997
184.12397   172.05785   121.00000  13.71519             11.48297
193.17647   694.88462   442.00000  35.29480             17.21649
189.09917   847.56612   242.00000  21.24083             14.57968
188.46386   820.48193   166.00000  16.23321             13.12310
188.74444   501.69444   180.00000  22.47692             10.34001
187.54286   656.19286   140.00000  15.05978             11.84694
196.49035   413.03861   259.00000  19.48474             16.96451
200.06478   648.66397   247.00000  21.49845             14.72032
204.94091   378.48182   220.00000  19.15545             14.71142
210.20606   1805.61212  165.00000  17.16123             12.27190
212.93860   896.20175   228.00000  18.55157             15.68007
219.35938   607.74609   256.00000  18.39281             17.84430
222.98377   390.39935   308.00000  23.98441             16.85569
227.69625   466.77133   293.00000  24.50312             15.30000
225.55870   492.54251   247.00000  21.42656             14.72861
224.00000   548.97521   242.00000  19.88783             15.65649
228.37190   914.12810   242.00000  24.24258             12.87333
227.23984   886.86585   246.00000  19.91562             15.90052
229.28516   643.02734   256.00000  22.61533             14.52958
240.11186   872.77966   295.00000  22.99510             16.46231
243.08108   764.86873   259.00000  19.24683             17.22767
244.90050   997.46269   201.00000  18.81337             13.82643
244.26829   1704.83902  205.00000  20.20996             13.18318
248.69481   526.07792   154.00000  17.44184             11.98104
249.22727   816.83712   264.00000  19.48489             17.42508
250.86312   356.39163   263.00000  20.78223             16.14452
250.81818   198.19394   165.00000  16.36438             12.94735
250.76471   628.97326   187.00000  16.66756             14.28702
253.42718   600.49029   206.00000  17.29866             15.27770
262.12500   513.58482   224.00000  20.84914             13.88029
263.99656   479.07560   291.00000  21.09641             17.70446
266.43983   220.48133   241.00000  19.25922             16.03854
268.70339   575.48729   236.00000  21.13901             14.34927
268.31890   657.05906   254.00000  19.77624             16.43614
267.45455   1778.71658  187.00000  18.05948             13.64649
271.29644   1081.84980  253.00000  20.31634             15.94534
272.98261   589.88696   230.00000  20.05071             14.67513
276.36397   722.36397   272.00000  20.19949             17.20056
278.44015   781.33205   259.00000  21.04724             16.04324
281.01345   1007.70404  223.00000  20.26248             14.32270
283.02643   1058.42731  227.00000  18.97272             15.27060
283.29139   690.10596   151.00000  15.18735             12.66030
286.74721   905.56877   269.00000  25.58031             13.77783
289.15341   1723.92614  176.00000  17.23934             13.75022
288.12143   540.87857   140.00000  14.43103             12.45630
294.08046   734.00383   261.00000  21.26316             15.73939
293.44828   1374.73103  145.00000  16.68163             11.28681
292.41071   668.20238   168.00000  15.42170             13.94745
293.44828   49.77011    87.00000   14.09363             9.26610
296.54622   940.96639   238.00000  21.65766             14.12916
297.76824   387.18026   233.00000  21.64163             13.75048
297.29143   687.61143   175.00000  16.85869             13.29441
301.13262   479.74552   279.00000  21.61799             16.47994
297.62931   551.84483   116.00000  12.39899             11.92903
301.63033   966.06161   211.00000  18.88247             14.22738
303.01818   1087.46909  275.00000  24.65030             14.37095
302.49138   1111.38362  232.00000  19.03191             15.67943
306.05412   505.17647   425.00000  31.66630             17.59771
299.91892   1062.54054  37.00000   7.30822              6.39037
304.00000   539.93137   102.00000  13.21303             9.90580
311.23695   921.55823   249.00000  21.17456             15.02830
318.81092   935.81092   238.00000  29.47260             10.57680
314.55172   1332.76293  232.00000  18.50758             16.01863
316.02917   629.30417   240.00000  19.70264             15.63902
323.01577   1001.95899  317.00000  30.24516             13.52742
317.69189   43.74054    185.00000  16.76021             14.30184
316.72362   1076.25628  199.00000  16.97294             15.00612
322.41304   1062.91304  184.00000  16.85429             14.03860
323.13725   532.09804   153.00000  14.68620             13.31435
328.53532   864.60223   269.00000  22.92215             15.06496
328.31677   206.16149   161.00000  16.16820             12.68128
334.29536   703.33333   237.00000  22.39497             13.76600
335.01288   987.60515   233.00000  21.25457             14.13104
333.76842   1081.56842  190.00000  17.90775             13.56236
338.09339   498.75486   257.00000  21.43302             15.29296
341.47656   828.97656   256.00000  22.02556             15.36578
341.60993   934.96454   141.00000  15.89511             11.32299
344.37824   963.03627   193.00000  22.85354             10.88071
345.33333   799.27519   258.00000  19.56467             16.92395
347.04467   921.45017   291.00000  25.16474             15.10368
345.74033   884.20442   181.00000  17.10545             13.55401
348.98141   562.91822   269.00000  19.19775             17.84660
348.60000   1268.13667  300.00000  20.46266             18.85295
351.98770   1288.35656  244.00000  23.57291             13.74902
352.76355   712.26601   203.00000  17.75144             14.64801
351.82394   1102.68310  142.00000  15.52724             11.84700
356.00629   740.17610   159.00000  18.71938             10.95129
354.78571   1115.71429  154.00000  15.45927             12.89755
358.28244   1226.80153  262.00000  21.90582             15.59211
361.50417   940.87917   240.00000  20.89173             14.69813
360.99451   971.94505   182.00000  18.35407             12.82350
363.46743   1009.37931  261.00000  18.71052             17.80900
361.85455   1039.84545  110.00000  13.51691             10.41632
362.84138   1081.06207  145.00000  17.01855             10.89137
365.35088   794.30409   171.00000  16.66310             13.10561
365.30570   1060.15026  193.00000  17.31600             14.26540
366.48848   891.08295   217.00000  17.82005             15.63146
372.31683   446.39934   303.00000  24.35186             15.95055
370.26316   769.03383   266.00000  20.32583             16.79927
371.08589   417.68712   163.00000  15.48276             13.41636
372.13765   907.26316   247.00000  20.49352             15.39694
383.97887   830.32042   284.00000  28.58487             12.85298
380.66019   379.11165   206.00000  17.35445             15.26718
381.79918   1044.44672  244.00000  20.50777             15.24832
383.16990   1783.11650  206.00000  18.79418             14.03057
385.08772   1169.25263  285.00000  20.11784             18.15862
386.66176   545.60294   340.00000  23.22935             18.87288
381.61538   1001.95192  104.00000  13.15299             10.09849
384.19008   1089.10331  242.00000  18.49923             16.73038
385.27439   800.20732   164.00000  18.20593             11.52803
385.30935   1020.41007  139.00000  15.73387             11.27647
385.28906   484.21875   128.00000  15.00722             10.92272
389.62567   871.13904   187.00000  20.64284             11.57472
385.75904   912.09639   83.00000   12.15484             8.75924
391.74150   886.36735   147.00000  15.56630             12.08640
394.04098   916.74590   122.00000  14.11851             11.12675
398.32544   488.39053   169.00000  17.42332             12.88950
393.91803   813.37705   61.00000   11.21528             6.93524
398.03065   1363.68199  261.00000  19.97261             16.68132
400.62500   780.03125   224.00000  22.68432             12.65245
402.43162   956.73932   234.00000  20.60395             14.77318
399.29139   968.56954   151.00000  16.57954             11.69143
402.38095   1151.25641  273.00000  22.49947             15.58613
399.74091   1769.01818  220.00000  18.23278             15.47593
404.56015   929.33083   266.00000  23.25929             14.74065
405.16034   1284.77637  237.00000  18.95994             15.98790
405.04605   748.43421   152.00000  15.85781             12.29914
415.66396   854.27913   369.00000  30.69812             16.05556
406.35632   1058.65517  174.00000  16.73464             13.30005
407.72996   1090.32911  237.00000  18.72291             16.23159
409.20221   832.56250   272.00000  22.31931             15.90456
411.51741   1330.43284  201.00000  16.24926             15.76582
418.54967   382.87086   302.00000  23.08530             17.58934
412.31933   1001.66387  119.00000  12.91914             12.06743
423.13966   703.49721   358.00000  28.92768             16.36303
416.23077   782.56154   130.00000  13.68500             12.30105
418.09333   888.76000   225.00000  18.23828             15.88045
422.67683   1126.93598  328.00000  24.27933             17.35278
422.83587   462.26444   329.00000  22.09718             19.03287
424.84000   669.03200   250.00000  19.30424             16.54401
423.87952   1240.47590  166.00000  17.45939             12.11344
426.72614   489.74689   241.00000  17.86099             17.37710
428.89412   588.11765   255.00000  19.98167             16.34778
428.58904   825.39269   219.00000  21.09341             13.33307
430.26820   1254.07663  261.00000  22.95160             14.72436
429.47111   808.72000   225.00000  19.99078             14.47293
429.64231   558.19615   260.00000  20.14679             16.52032
427.43382   781.97059   136.00000  16.32008             10.71203
433.33237   642.06647   346.00000  31.34598             16.79274
430.90431   1059.33971  209.00000  17.65115             15.29343
433.18750   1200.91875  320.00000  22.83201             18.01197
434.90947   531.63786   243.00000  23.47591             13.35807
431.81200   954.24000   250.00000  18.05141             17.73458
431.64423   759.98077   208.00000  20.89446             12.70396
432.52778   866.52315   216.00000  17.86856             15.44731
431.56897   880.37931   116.00000  13.08236             11.29500
433.66019   1095.02913  206.00000  18.27445             15.01420
435.80576   1174.08633  139.00000  16.64933             10.73175
438.88272   919.15432   162.00000  14.97211             13.84304
441.65049   358.53398   206.00000  16.87042             15.69053
442.05932   518.13136   236.00000  19.47078             15.81719
440.90604   983.31544   149.00000  14.47084             13.20066
446.56825   1299.21270  315.00000  25.00558             16.12624
443.53801   939.86550   171.00000  16.39689             13.44859
444.39048   781.49524   105.00000  13.41376             9.98631
445.73585   817.60377   212.00000  19.38714             14.09874
445.22957   1110.04669  257.00000  24.64857             13.46004
452.14151   1060.73585  318.00000  28.56310             14.30207
450.17085   1022.73367  199.00000  22.70560             11.21016
450.06667   768.82963   135.00000  16.88542             10.24617
455.93182   878.57670   352.00000  27.08290             18.16046
451.45270   914.90541   148.00000  16.84015             11.34296
458.17714   704.23429   175.00000  16.46310             13.64520
459.00877   720.39912   228.00000  20.29971             14.47211
466.21283   1103.44315  343.00000  22.51570             19.49356
463.73756   1148.20362  221.00000  18.20932             15.63538
466.28821   782.03493   229.00000  19.58881             15.12148
462.06452   766.37097   62.00000   9.23535              8.52630
466.92500   1010.22500  240.00000  22.75416             13.50611
465.01087   552.67391   92.00000   13.73722             8.64887
470.85477   1043.14523  241.00000  24.60619             13.02159
466.74457   1704.92391  184.00000  15.66534             15.02982
468.43750   1061.36806  144.00000  17.60619             10.62037
476.98322   843.96980   298.00000  24.19238             16.47445
474.79200   1163.00800  250.00000  19.76579             16.21987
477.26667   862.52000   150.00000  20.00959             9.84777
477.55479   720.84589   292.00000  19.85464             18.78781
474.58784   955.36486   148.00000  14.36112             13.26820
481.69014   670.03169   284.00000  25.28469             14.37055
477.10791   758.20863   139.00000  15.19099             11.68187
481.39934   1328.05281  303.00000  22.84639             17.13354
481.77838   929.58919   185.00000  19.71710             12.42007
483.63229   1126.34081  223.00000  18.51620             15.46987
481.43939   815.16667   66.00000   10.74935             7.82826
483.94595   995.37838   185.00000  16.99701             13.93913
493.78788   899.44545   330.00000  30.31208             14.51596
492.42412   1216.84825  257.00000  25.02613             13.13633
489.40234   1304.55859  256.00000  19.93745             16.40246
489.13953   771.33333   129.00000  13.41751             12.26411
489.13714   1045.87429  175.00000  27.03031             8.71437
493.22059   1099.38971  136.00000  16.51433             10.51376
495.25000   1139.22857  140.00000  14.34537             12.59603
498.26316   688.65414   133.00000  15.32295             11.43094
497.41304   1173.34783  138.00000  14.50832             12.13104
501.58582   1262.32463  268.00000  23.45106             14.83055
498.46154   1013.20118  169.00000  14.82930             14.58338
505.84926   990.79779   272.00000  26.65084             13.14658
503.55066   1576.55947  227.00000  22.76518             12.89031
501.79615   851.05000   260.00000  21.14306             15.90806
501.59176   1083.39700  267.00000  22.72443             15.37935
504.82699   1285.38408  289.00000  20.20160             18.30813
506.75000   646.31908   304.00000  22.91281             17.05427
504.97895   909.85263   95.00000   11.61023             11.13012
507.60194   958.24757   206.00000  17.41339             15.34002
510.21875   728.86458   288.00000  19.92009             18.64039
509.40260   711.44805   154.00000  15.23860             13.08535
512.32292   945.75521   192.00000  18.66470             13.48771
512.00000   1146.97021  235.00000  26.18004             11.69851
512.72115   1096.09615  104.00000  14.32508             9.31583
519.92615   757.58769   325.00000  24.52720             17.64653
517.18834   912.63677   223.00000  17.60991             16.20834
520.08906   1039.60560  393.00000  27.55510             22.33208
517.67033   1121.25275  182.00000  18.68739             12.53824
519.96947   800.96183   262.00000  21.52795             15.69624
518.68950   1016.34247  219.00000  21.84105             13.03268
522.72043   1091.36559  186.00000  16.86346             14.08646
523.73554   1058.56198  121.00000  13.36803             11.56725
525.11945   1159.84642  293.00000  24.92909             15.47682
525.76419   1312.54148  229.00000  20.93893             14.28094
528.73477   996.27240   279.00000  21.64045             16.63874
530.15891   863.96124   258.00000  20.76000             16.15541
529.06780   927.23729   177.00000  16.25560             13.91504
529.19689   1725.68912  193.00000  17.18196             14.42732
535.41892   1026.19595  148.00000  15.40457             12.23338
536.02899   1046.41304  138.00000  16.24340             10.84088
538.51986   1334.89170  277.00000  24.53215             14.72693
538.60714   1081.82143  168.00000  18.30717             11.81449
541.18788   1141.58182  165.00000  16.41952             12.94113
546.02332   1056.83938  386.00000  28.02941             17.68472
548.70103   1262.21993  291.00000  26.17125             14.43491
547.69202   1365.35361  263.00000  20.56805             16.46172
545.50962   1289.15865  208.00000  18.40996             14.50119
549.31489   877.40426   235.00000  19.34744             16.04126
553.39130   907.72174   345.00000  35.33860             13.11329
554.37000   662.93000   300.00000  23.98648             17.26287
547.62722   982.75148   169.00000  18.58126             11.75785
552.91085   1105.63178  258.00000  21.14155             15.99934
550.94581   1229.68966  203.00000  20.21917             12.81937
548.75000   1013.39706  136.00000  15.26192             11.38723
553.60215   810.77419   186.00000  17.56174             13.61137
554.83117   925.47403   154.00000  18.13011             10.93195
558.44231   830.28846   208.00000  21.89654             12.40050
558.33831   701.73632   201.00000  19.51190             13.44027
556.05063   849.10127   79.00000   11.46430             8.81944
560.82000   737.80000   150.00000  20.22387             9.50912
559.61386   953.62871   202.00000  19.99777             12.89764
556.69136   1117.98765  81.00000   10.61130             9.96028
557.24000   1303.74000  100.00000  12.05689             10.59001
560.00000   977.42424   99.00000   14.15629             8.95514
561.23741   1580.04317  139.00000  15.23074             11.99338
562.51235   1078.54938  162.00000  15.99535             12.96562
572.06612   1319.63912  363.00000  30.46327             17.76974
563.64122   1035.86260  131.00000  16.84451             10.28784
566.15000   763.11875   160.00000  16.70040             12.32116
567.03448   810.77011   174.00000  15.87806             14.41222
566.12717   996.48555   173.00000  15.64035             14.16486
567.97340   1137.21809  188.00000  19.30325             12.42747
576.62410   928.36386   415.00000  33.35303             16.17483
572.23024   1357.79381  291.00000  22.88110             16.41931
574.25939   727.56314   293.00000  21.52198             17.64899
574.93671   1299.68354  237.00000  19.89509             15.37231
571.62264   1201.21698  106.00000  14.17968             9.66511
572.57031   871.82031   128.00000  15.35914             10.68298
574.36260   1090.93130  262.00000  26.55228             12.91323
574.95000   772.17000   200.00000  22.29222             11.62733
584.22754   1271.85429  501.00000  33.14872             19.75747
580.41040   1535.27457  346.00000  31.25368             15.77222
578.12000   1019.63200  125.00000  15.60159             10.27391
581.56452   675.65591   186.00000  21.20825             11.33232
584.06552   1710.13448  290.00000  23.41130             16.23176
583.36910   1237.00858  233.00000  20.84263             14.35316
583.25175   1637.25175  286.00000  21.25740             17.24597
584.69268   1119.93659  205.00000  18.72472             14.20012
587.35948   1190.59477  306.00000  24.08724             16.21422
583.50562   949.12360   89.00000   14.77363             7.70018
586.26667   709.61961   255.00000  23.38692             14.05644
586.24670   872.49339   227.00000  19.60869             14.98033
586.87347   1684.04898  245.00000  22.73255             13.99118
590.92339   976.81452   248.00000  25.39945             12.72404
590.30996   1579.36900  271.00000  26.22014             13.49070
588.39850   1079.88722  133.00000  15.88923             10.88311
591.76818   1842.34091  220.00000  18.52423             15.15096
591.57647   671.58824   85.00000   13.20756             8.26195
596.69262   767.68443   244.00000  22.73430             14.20853
590.25000   964.65385   52.00000   8.42109              7.86514
599.14732   660.49554   224.00000  25.07644             11.54043
595.76577   1072.53153  111.00000  18.05786             8.31216
596.38889   1372.97917  144.00000  15.13926             12.18553
599.03226   861.64516   186.00000  17.68278             13.54078
600.25633   791.44937   316.00000  30.33361             13.83795
599.98131   1243.67290  214.00000  17.11434             16.13374
599.58051   1356.86864  236.00000  20.97738             14.42139
601.88430   1385.96281  242.00000  19.86933             15.85101
599.66447   1035.43421  152.00000  16.66734             11.80601
605.94833   1008.35866  329.00000  23.32308             18.53806
607.73451   851.80973   226.00000  23.27197             12.61831
607.69058   952.38117   223.00000  21.38579             13.29056
607.07514   833.38150   173.00000  18.97335             11.75658
606.18590   1082.28205  156.00000  16.21787             12.36521
613.37209   720.86047   215.00000  24.42783             11.64317
611.51124   892.00000   178.00000  16.58670             13.77763
611.71078   976.10784   204.00000  19.03630             13.70619
609.14815   1059.61111  54.00000   10.52815             7.08794
611.23770   1067.36885  122.00000  14.80754             10.66095
613.93956   1051.69780  182.00000  17.57148             13.24862
621.12453   1417.06038  265.00000  21.56367             16.02733
620.59276   863.60633   221.00000  20.40939             14.24440
624.21645   1307.32468  231.00000  20.42556             14.43529
624.33178   1324.72430  214.00000  20.26232             13.49259
624.91275   973.52013   298.00000  26.85264             14.48590
622.47143   1553.17143  140.00000  14.69493             12.19503
626.31441   1394.40611  229.00000  20.99651             14.32957
629.67526   887.80928   194.00000  20.55912             12.12825
627.21019   1245.04459  157.00000  16.58054             12.36867
628.67078   1523.67078  243.00000  19.45029             15.95815
630.58685   1007.76056  213.00000  17.53353             15.51335
628.45545   1111.96040  101.00000  12.88817             10.13457
630.82653   1476.93367  196.00000  18.08915             13.86767
633.14386   832.61053   285.00000  20.95375             17.57849
634.24607   906.87958   191.00000  18.57643             13.28300
632.94712   1225.70192  208.00000  20.59458             13.26697
635.36287   1339.42616  237.00000  20.46265             14.93154
635.45872   782.12844   218.00000  18.83648             14.86380
636.62109   1042.38672  256.00000  22.23300             15.08323
636.31410   1171.57051  156.00000  17.02739             11.75387
637.52880   1620.48691  191.00000  16.24307             15.04966
639.16568   1447.92899  169.00000  17.32622             12.63289
641.88571   1112.66190  210.00000  21.55616             12.90400
640.42599   1389.05776  277.00000  23.80108             14.84929
644.73231   973.62769   325.00000  23.42002             17.75361
642.60119   1197.69048  168.00000  16.06183             13.49204
644.51659   1231.74408  211.00000  18.00100             15.09689
644.20588   1585.08824  204.00000  21.53885             12.34396
647.00455   686.79545   220.00000  22.03801             12.83964
645.96791   992.71658   187.00000  19.05665             12.60642
647.64651   897.24651   215.00000  19.77360             13.86465
649.85612   915.74820   278.00000  21.03621             16.99055
649.78864   811.40379   317.00000  30.07925             13.80087
649.42857   833.32919   161.00000  18.02407             11.62566
646.98684   1021.62500  152.00000  14.64221             13.20627
652.71646   1360.84451  328.00000  24.11341             17.51632
648.41270   1645.51852  189.00000  17.11187             14.14095
651.32031   1089.41406  256.00000  20.73950             15.88989
647.76636   1138.55140  107.00000  13.56428             10.04807
650.85930   1449.43719  199.00000  18.96271             13.56524
653.23077   654.52885   208.00000  18.56666             14.46848
655.50545   736.45455   275.00000  22.97659             15.39443
654.22705   1505.67150  207.00000  18.27078             14.79307
657.43083   1124.87352  253.00000  20.68591             15.64773
658.26613   823.86290   124.00000  13.16895             12.05831
661.19184   1189.92245  245.00000  21.68740             14.64770
663.49758   926.89855   207.00000  19.78728             13.38285
664.56731   680.12500   208.00000  19.56999             14.07401
662.51402   3.94393     107.00000  14.25182             9.82893
666.00901   880.50000   222.00000  20.31972             14.03887
669.91593   1318.05310  226.00000  22.16264             13.46989
665.86364   652.50000   154.00000  14.88787             13.21655
668.54802   942.63277   177.00000  18.49233             12.23488
663.87692   1628.89231  65.00000   10.69114             7.73271
669.98425   1093.23622  254.00000  19.65877             16.53171
670.18487   806.47059   238.00000  18.98589             15.99844
667.19178   696.97260   73.00000   11.69926             7.95576
670.93532   757.59204   201.00000  16.75846             15.77599
676.03614   1121.20482  249.00000  20.96408             15.18746
677.49141   844.26117   291.00000  21.10578             17.57097
675.74118   1505.27647  170.00000  15.87063             13.73506
679.09845   766.31088   193.00000  21.30549             12.28680
677.28261   1416.96196  184.00000  17.23590             13.70389
676.64257   1550.53414  249.00000  23.57835             13.55484
680.96167   1039.43554  287.00000  19.83632             18.65303
681.43350   693.32512   203.00000  19.96103             13.17754
680.82000   972.72500   200.00000  18.41657             13.91910
683.95142   1388.28340  247.00000  18.86348             16.74469
682.72549   1570.98039  51.00000   9.06814              7.15159
689.32271   657.73705   251.00000  21.14478             15.34018
691.35714   723.45130   308.00000  27.86398             14.77671
693.16364   1516.58909  275.00000  26.03883             13.61651
689.58247   1418.18041  194.00000  19.99083             12.70218
691.26389   756.93750   144.00000  17.59143             10.45245
695.25676   861.31081   148.00000  16.26225             11.69747
706.05112   829.60703   313.00000  28.87380             13.90550
701.21519   895.17300   237.00000  19.60153             15.47814
699.68354   1445.46835  79.00000   10.77446             9.49958
703.80269   1878.48879  223.00000  18.26122             15.64006
701.42857   769.44156   77.00000   13.14475             7.52235
703.32540   1894.32540  126.00000  14.15893             12.86104
708.03271   687.80374   214.00000  22.52021             12.14636
706.14070   1244.52261  199.00000  17.71990             14.30296
709.33942   796.91241   274.00000  20.87618             16.90507
709.20183   759.52752   218.00000  24.46681             11.48495
708.66038   862.58491   212.00000  19.99036             13.52601
710.86022   731.52151   186.00000  21.42879             11.10134
712.80075   1124.17293  266.00000  21.62322             15.76374
713.04000   403.71500   200.00000  17.94462             14.20230
726.84229   645.02946   577.00000  35.22004             21.97801
720.31250   1034.44231  208.00000  19.37553             14.50106
715.00781   1405.03125  128.00000  18.79547             8.94923
721.35065   922.11688   154.00000  19.69349             10.57349
722.11947   381.98673   226.00000  19.47529             14.85102
723.73529   868.42437   238.00000  22.08562             14.11790
722.15385   1269.54274  234.00000  22.43286             13.41704
726.14789   884.48592   142.00000  18.37837             9.83071
731.54348   757.05652   230.00000  23.59148             12.47414
733.06569   1398.91606  274.00000  25.05601             15.42913
730.26829   824.42073   164.00000  19.78953             10.76582
729.01754   906.67544   114.00000  13.44225             10.89349
729.08040   1645.92965  199.00000  20.89460             12.22145
734.03371   1126.16854  267.00000  22.61047             15.05228
733.19753   685.17901   162.00000  18.11541             11.42138
731.81604   1311.18868  212.00000  20.07496             13.68231
735.27830   781.31132   212.00000  18.75678             14.56400
736.48560   1026.69959  243.00000  20.92232             15.00517
736.00000   413.36316   190.00000  18.68470             13.10095
736.97368   578.24561   228.00000  27.36828             11.10244
734.50909   969.22424   165.00000  19.22568             11.34864
738.76064   1663.44149  188.00000  19.35113             12.44771
737.51282   1107.93846  195.00000  17.30338             14.37650
739.14573   620.94975   199.00000  17.47505             14.53643
746.13147   1301.39044  251.00000  22.94372             14.52630
740.60317   905.15873   126.00000  15.62760             10.36317
744.34146   963.82317   164.00000  17.78659             12.46275
747.17791   845.00307   326.00000  29.83345             14.66221
748.86853   1083.76892  251.00000  21.41338             15.23683
746.94444   1518.12698  126.00000  13.53080             11.94061
751.24815   513.89630   270.00000  24.18589             14.62279
748.79705   916.47970   271.00000  22.43929             15.53395
753.49825   1369.37193  285.00000  24.22041             15.28676
755.21928   1432.90361  415.00000  28.49850             18.78597
752.06098   740.28659   164.00000  19.99641             10.91159
753.11157   1276.71488  242.00000  20.22360             15.34890
755.41259   1018.03497  286.00000  24.03923             15.30168
757.31683   761.16172   303.00000  23.14949             16.93331
751.79592   944.10204   49.00000   8.77987              7.09982
754.32759   1526.93103  116.00000  13.14695             11.27642
763.32273   869.25000   220.00000  25.01131             11.77302
758.64542   1396.90837  251.00000  21.56140             15.38522
759.35821   430.56716   201.00000  17.72701             14.47956
758.07870   1588.50000  216.00000  18.02102             15.27875
760.53171   1483.80000  205.00000  19.65768             13.33628
759.89947   1097.92593  189.00000  19.86194             12.20655
766.52239   1346.57463  268.00000  25.60209             13.52786
764.29730   1853.01351  222.00000  18.31773             15.51919
768.00450   1333.35586  222.00000  23.93309             11.95301
770.03597   1681.31295  278.00000  26.52118             13.40527
767.70066   673.66118   304.00000  20.63442             19.28465
766.05691   1235.22358  246.00000  20.01200             15.89502
765.22941   1555.67059  170.00000  17.26431             12.57732
769.98653   971.38721   297.00000  21.79635             17.44598
765.78750   1383.76250  80.00000   12.34769             8.26496
770.24014   735.49821   279.00000  25.73902             14.40502
779.36140   947.64035   570.00000  38.09057             19.55634
775.65714   832.64857   350.00000  22.44226             20.32331
771.30286   988.26857   175.00000  19.39989             11.97687
771.14679   1006.70183  218.00000  18.72161             14.93074
766.65517   643.17241   29.00000   6.93258              5.33458
775.55290   626.35154   293.00000  25.32177             15.26537
773.76256   1032.81279  219.00000  18.08953             15.51785
776.04015   1829.41241  274.00000  23.69011             14.84134
773.26829   784.88415   164.00000  16.83343             12.65107
771.92090   915.15819   177.00000  18.06459             12.63639
769.36842   928.42105   38.00000   8.27306              5.78753
779.28421   1525.29737  380.00000  25.41713             20.23803
777.06931   887.03960   202.00000  17.98585             14.29156
778.49618   1083.54962  262.00000  19.71321             17.03674
780.97552   1279.32517  286.00000  22.99773             17.33517
777.56972   1298.54183  251.00000  20.29895             16.19374
777.87391   1420.73478  230.00000  19.05791             15.46297
778.61977   1473.17871  263.00000  20.65808             16.26730
777.35099   524.12252   302.00000  29.86539             13.83319
780.47280   773.64435   239.00000  19.71946             16.34726
781.34906   637.36792   212.00000  20.33894             13.52652
781.01075   1053.81720  186.00000  15.87021             14.97195
784.46693   804.54086   257.00000  21.15262             15.56788
779.01724   1507.94828  58.00000   10.08948             7.36837
786.22907   1711.50220  227.00000  19.87674             14.60811
786.46500   1193.66500  200.00000  18.59576             14.28785
788.46114   439.35233   193.00000  16.67032             14.75980
789.00000   1179.89754  244.00000  22.14717             14.13832
789.23297   557.08244   279.00000  26.26688             13.92242
792.87454   708.71218   271.00000  25.98655             13.97388
795.80058   896.65607   346.00000  23.70197             18.90744
792.63441   1105.17742  186.00000  16.58651             14.46420
795.28533   1216.92663  368.00000  32.95813             14.85959
796.66964   791.37500   224.00000  18.51356             15.69696
799.60751   1413.94881  293.00000  21.60690             17.72101
799.67290   617.76947   321.00000  28.99961             14.24222
796.28058   1579.35252  139.00000  14.54687             12.17338
800.54392   1004.40203  296.00000  23.77854             16.23200
799.24257   1434.31188  202.00000  16.85781             15.31355
800.82126   1677.87923  207.00000  18.81333             14.03721
801.35000   465.57500   240.00000  18.61213             16.54706
802.36486   1362.05856  222.00000  19.57829             14.65339
800.67407   1486.28519  270.00000  25.46819             13.53351
808.04844   856.00692   289.00000  29.41518             12.75084
804.77990   1265.95694  209.00000  23.87020             11.37328
804.48571   1544.37143  245.00000  19.49565             16.11879
804.22464   885.24638   138.00000  15.76617             11.30204
802.90816   936.50000   98.00000   12.11459             10.34703
807.47037   1094.88148  270.00000  20.15667             17.34923
809.23350   970.06091   197.00000  20.51470             12.56787
814.13201   483.47855   303.00000  22.41715             17.23562
812.91262   1519.86408  206.00000  18.78971             14.07624
810.55660   1556.69811  106.00000  11.91986             11.68905
812.66265   1585.08434  249.00000  23.44884             13.78639
815.38767   805.11894   227.00000  18.00634             16.18764
815.94393   934.48598   214.00000  17.62015             15.77944
817.34304   979.77670   309.00000  25.85353             15.50139
816.67327   1440.87624  202.00000  18.36106             14.04404
816.82584   509.60674   178.00000  15.93236             14.23432
818.80335   1260.35146  239.00000  23.37464             13.23056
816.38750   1498.27500  80.00000   12.71781             8.00279
823.56911   1476.82385  369.00000  25.62139             18.64171
822.69027   830.39823   226.00000  19.59423             14.92734
829.04337   953.72530   415.00000  26.47535             20.12890
822.81875   1543.63125  160.00000  15.86593             13.04496
826.06030   1370.60302  199.00000  17.81543             14.23812
826.48773   594.77607   326.00000  25.31350             16.62041
829.58730   1031.11111  252.00000  21.53631             14.90482
829.01010   1403.62290  297.00000  19.86402             19.20768
828.92181   1509.32922  243.00000  19.93900             15.55593
838.33962   912.05031   318.00000  30.11116             13.66298
837.50266   972.21011   376.00000  22.86278             21.08826
835.30263   527.85526   152.00000  15.49662             12.53003
840.50951   841.57034   263.00000  21.74762             15.47015
844.10256   1151.39601  351.00000  26.60468             17.15848
839.67249   1382.92576  229.00000  20.30545             14.48015
839.23333   1121.07143  210.00000  19.38995             14.03366
843.62397   1446.09504  242.00000  22.93057             13.63686
848.64919   853.39919   248.00000  22.99819             13.83719
843.63212   1408.81865  193.00000  19.20540             12.84524
851.47156   994.37064   545.00000  30.55241             23.32841
849.49515   521.63754   309.00000  23.07552             17.31361
849.22857   1486.21633  245.00000  19.12209             16.35455
852.88142   1030.73913  253.00000  20.80945             15.82091
852.50521   547.03125   192.00000  18.49711             13.21013
856.52770   721.96210   343.00000  24.10441             18.72224
853.97664   576.33178   214.00000  17.56588             15.55776
858.10769   792.75692   325.00000  24.04215             17.69192
855.83468   810.54435   248.00000  20.60734             15.34436
856.26623   1598.83117  308.00000  22.15043             17.81367
857.18908   935.62605   238.00000  19.43599             15.65396
858.19444   1416.53571  252.00000  23.00038             14.05235
861.75159   889.35032   314.00000  21.76694             18.52081
869.13808   1184.28033  239.00000  20.93378             14.67004
878.42803   1007.50379  264.00000  19.51999             17.36879
877.40796   1465.85075  201.00000  16.92903             15.15625
877.39796   1563.70918  196.00000  16.72686             14.97203
880.74013   1486.67105  304.00000  22.89719             16.97712
881.47490   1589.97683  259.00000  19.81482             16.80375
887.63821   1520.21138  246.00000  21.41523             14.87214
884.64615   1421.00513  195.00000  18.83918             13.25121
892.07719   953.19298   285.00000  21.46237             18.61093
892.41736   761.07851   242.00000  21.17203             14.87468
888.85714   1969.52857  140.00000  14.83610             12.18931
891.39823   1036.75221  226.00000  18.43046             15.63359
895.30556   1507.98611  144.00000  14.21951             12.88745
898.54040   1468.70202  198.00000  17.76517             14.22199
903.77656   1194.39560  273.00000  20.63991             17.00148
903.55411   1417.67532  231.00000  18.98053             15.56656
901.80263   1547.84211  228.00000  18.75416             15.54269
904.47940   1383.50936  267.00000  19.08946             17.93257
903.72015   771.83582   268.00000  20.76100             16.53079
910.82963   971.67037   270.00000  20.84964             16.62508
914.08541   1224.80783  281.00000  24.61145             14.66601
909.88827   1013.76536  179.00000  17.82048             12.90481
916.82101   1038.00389  257.00000  25.03179             13.25982
917.67589   1475.72332  253.00000  18.27271             17.81129
925.02069   1318.88276  290.00000  21.10025             17.77137
932.36142   749.25277   451.00000  34.06564             17.83352
934.12950   1533.00719  278.00000  29.99922             12.95178
933.03200   1042.25600  250.00000  22.95934             14.41984
936.99559   1458.77974  227.00000  18.96285             15.42195
942.23529   1363.01569  255.00000  20.54992             15.83726
939.23466   692.99278   277.00000  25.22515             14.18932
944.36546   927.04016   249.00000  19.38249             16.58917
942.58746   1013.07261  303.00000  23.99586             16.36482
942.35714   1411.28571  308.00000  26.69858             14.99073
950.90698   114.00388   258.00000  20.81776             15.85696
952.77289   148.65201   273.00000  22.67139             15.65540
956.72653   696.28980   245.00000  19.33763             16.44501
963.87732   910.47584   269.00000  21.54036             16.06910
965.97612   886.76716   335.00000  20.99118             20.72358
963.84865   1227.60000  185.00000  16.85668             13.97048
965.07851   1051.18182  242.00000  23.02865             13.55841
966.08293   660.72195   205.00000  17.64250             14.85869
969.72075   1394.19245  265.00000  20.74804             16.47352
972.08304   1517.10381  289.00000  21.43120             17.37175
983.73312   1212.95498  311.00000  34.30183             13.17849
976.02518   1372.59712  278.00000  20.93906             17.05469
979.40727   643.18182   275.00000  20.59879             17.14191
981.31727   74.62651    249.00000  19.44796             16.35373
979.83886   1104.29384  211.00000  19.88125             13.74033
985.51269   1234.54315  197.00000  16.53793             15.25311
986.63348   865.14932   221.00000  18.56854             15.59897
990.82418   112.50549   182.00000  16.62814             13.95357
992.86170   1366.25177  282.00000  21.04014             17.33830
992.53070   1132.46930  228.00000  22.67668             12.90116
991.55963   201.80734   109.00000  13.17670             10.52733
993.35928   1513.23353  167.00000  15.55548             13.71303
1006.24211  859.66316   285.00000  24.43283             15.01635
1005.93103  1123.14559  261.00000  24.28756             13.71124
1008.21739  734.50000   276.00000  19.22090             18.35095
1015.40755  836.17736   265.00000  20.86687             16.34515
1021.26844  1505.41593  339.00000  25.72953             18.45299
1013.37037  164.37037   27.00000   6.44756              5.35780
1017.40187  454.44860   107.00000  13.64695             10.01466
1020.67460  206.73016   126.00000  14.16425             11.33924
1026.43256  815.90233   215.00000  19.89130             13.83756
1027.72222  189.29167   72.00000   10.40237             8.84907
1032.89474  1224.35407  209.00000  19.50743             13.67478
1034.50000  448.03125   64.00000   9.45555              8.75082
1037.61233  872.33480   227.00000  17.92808             16.25859
1042.26337  1138.55556  243.00000  23.34581             13.42573
1041.12324  1316.02113  284.00000  20.16244             18.41120
1039.45399  378.04908   163.00000  16.54832             12.63435
1038.05000  171.26250   80.00000   11.06452             9.17791
1037.81034  208.94828   58.00000   9.30724              7.96101
1042.37441  674.53555   211.00000  21.80299             12.75347
1043.71892  1474.98919  185.00000  18.80613             12.73105
1042.90411  558.43836   73.00000   10.96819             8.49724
1043.08000  414.02000   50.00000   8.76167              7.21695
1049.02597  524.37662   77.00000   10.63056             9.34389
1051.25862  876.46552   116.00000  13.32084             11.20732
1051.35849  48.92453    53.00000   10.60497             6.43915
1059.72333  1291.11667  300.00000  21.51841             17.91970
1056.50575  1458.32759  174.00000  17.94338             12.47509
1058.54264  315.27132   129.00000  14.08411             11.66044
1067.01351  733.83333   222.00000  25.35698             12.74700
1060.08889  581.75556   90.00000   11.98416             9.57820
1063.11494  523.63218   87.00000   11.42702             9.67585
1065.25424  507.52542   118.00000  14.47034             10.47703
1064.77358  380.15094   53.00000   9.02936              7.45319
1063.97368  460.36842   38.00000   7.69085              6.26894
1071.51210  716.23387   248.00000  19.18822             16.47576
1070.12796  791.29858   211.00000  18.60940             14.46362
1075.74857  1222.00857  350.00000  27.39030             17.76495
1072.44444  231.98148   108.00000  11.93952             11.52391
1078.00000  1260.15612  237.00000  19.61476             15.45109
1074.89535  469.60465   86.00000   11.34173             9.67571
1083.82589  1547.09375  224.00000  18.22292             15.92436
1080.76744  511.73256   86.00000   10.64683             10.32419
1084.79114  823.50633   158.00000  15.59895             12.98390
1083.70238  279.91667   84.00000   10.86929             9.83418
1084.09910  610.08108   111.00000  12.92739             10.93011
1086.42105  901.59809   209.00000  16.78905             15.88772
1088.44079  551.98355   304.00000  22.38210             18.35848
1089.29902  809.51471   204.00000  17.58801             14.79177
1086.07609  834.10870   92.00000   11.35656             10.38221
1090.08683  874.60180   334.00000  29.47060             15.05637
1090.61650  1117.40291  206.00000  18.22616             14.50619
1088.48958  243.42708   96.00000   11.68026             10.51117
1089.19355  190.32258   62.00000   9.82633              8.04934
1091.03175  520.73016   63.00000   11.00335             7.33111
1095.89787  682.41277   235.00000  20.73916             14.85987
1097.71523  1517.32450  151.00000  14.30793             13.54644
1096.60274  601.24658   73.00000   11.30682             8.21295
1103.02732  1414.28962  366.00000  24.38501             19.55225
1098.29670  587.05495   91.00000   15.08272             7.77570
1104.14108  745.46058   241.00000  19.31367             16.08380
1105.37991  1564.56769  229.00000  21.04958             14.01308
1103.21005  950.04566   219.00000  19.66880             14.28404
1106.97024  1525.68452  168.00000  16.73875             12.92167
1105.25547  441.24088   137.00000  13.86097             12.75039
1107.45956  1224.58088  272.00000  20.65505             17.00354
1108.29444  770.35556   180.00000  17.36955             13.35499
1107.79293  835.27778   198.00000  19.67420             12.82103
1113.81818  1080.36970  165.00000  17.33396             12.71958
1117.47566  1208.44569  267.00000  21.54601             15.88669
1115.31984  1702.47773  247.00000  22.10509             14.32544
1115.72917  615.78472   144.00000  16.82542             10.98945
1116.27568  933.63243   185.00000  18.19433             13.16628
1116.41964  1089.81250  112.00000  13.63802             10.82570
1116.76444  1723.29778  225.00000  20.69618             13.86705
1118.29818  521.84727   275.00000  24.54393             14.53933
1119.87624  749.14356   202.00000  17.59320             14.72936
1123.28302  629.00629   159.00000  15.14642             13.53851
1124.72340  779.03191   188.00000  17.43203             13.77289
1126.48585  678.79717   212.00000  18.36570             14.87057
1128.25000  441.28873   284.00000  25.04690             14.46931
1129.05285  1653.86179  246.00000  22.59834             14.13024
1134.49442  1054.44610  269.00000  25.27637             13.91699
1134.10855  1551.10197  304.00000  29.08238             14.06629
1132.36885  824.59426   244.00000  19.53219             16.19484
1131.38247  904.39442   251.00000  19.79384             16.22341
1133.76897  961.48966   290.00000  21.99187             17.42605
1130.20625  543.78125   160.00000  15.47363             13.20304
1134.79817  793.33333   327.00000  21.50802             19.57476
1133.38806  1244.85572  201.00000  18.76448             13.65158
1134.80576  704.67626   139.00000  14.69425             12.26271
1139.60905  1593.22634  243.00000  20.61460             15.10306
1138.85057  529.58046   174.00000  17.41784             13.00476
1138.90533  1230.76331  169.00000  16.40017             13.22028
1143.89015  840.09470   264.00000  25.72380             13.15679
1141.61481  561.34815   135.00000  14.22915             12.05556
1146.41631  928.31760   233.00000  19.34148             15.37713
1147.12552  743.55230   239.00000  18.82784             16.17100
1147.17526  706.22165   194.00000  16.30735             15.40950
1146.21176  1661.57647  170.00000  18.52550             11.82398
1148.36747  1678.39759  166.00000  16.48807             12.83006
1149.36493  539.19905   211.00000  19.44587             13.95944
1150.13793  604.16092   174.00000  17.63130             12.58187
1151.42803  401.85606   264.00000  23.84186             14.15498
1154.39524  792.73333   210.00000  17.52054             15.55645
1153.04487  1241.79487  156.00000  15.14315             13.13559
1154.29091  556.67273   165.00000  16.15341             13.05464
1159.92925  495.65094   212.00000  18.76696             14.44697
1161.11792  758.59434   212.00000  20.53912             13.17970
1162.81695  775.15932   295.00000  21.46445             17.62749
1163.21622  670.94054   185.00000  17.59309             13.49885
1164.23913  548.07065   184.00000  16.78425             14.42788
1164.34444  658.42222   180.00000  18.20096             12.93304
1165.91509  457.75472   212.00000  18.05838             14.98382
1168.93254  1595.66667  252.00000  19.29785             16.84749
1168.61194  836.83582   201.00000  19.04470             13.52171
1171.46190  686.89524   210.00000  17.52348             15.28289
1170.77487  868.25131   191.00000  17.33057             14.13131
1173.22295  1545.95738  305.00000  24.92820             15.84773
1171.01266  393.50000   158.00000  17.28057             11.73816
1177.76882  489.19355   186.00000  17.29939             13.74762
1179.70233  881.84186   215.00000  20.18943             13.61879
1183.48039  782.93137   306.00000  23.69382             16.48167
1180.25523  1244.63598  239.00000  20.15534             15.17670
1179.24528  420.45283   212.00000  19.99776             13.59511
1179.48673  576.78761   113.00000  14.33450             10.18029
1185.10074  541.85012   407.00000  27.97076             18.89046
1184.87368  752.52105   190.00000  17.76882             13.68234
1184.40237  586.28402   169.00000  15.18521             14.52161
1189.37127  629.73171   369.00000  29.56333             16.67436
1184.55665  698.08374   203.00000  19.37040             13.44990
1188.93836  361.19863   146.00000  14.86703             12.58309
1189.38816  644.32895   152.00000  14.21405             13.66624
1192.62437  432.55838   197.00000  16.94396             14.88471
1191.89130  565.09420   138.00000  14.64452             12.26477
1195.61181  659.26582   237.00000  20.77178             14.60463
1197.00000  483.69355   248.00000  18.17822             17.47768
1196.11875  1269.00000  160.00000  14.85842             13.74415
1200.31148  723.16393   244.00000  23.25712             13.46067
1198.34074  460.44074   270.00000  22.71101             15.23981
1197.18286  758.17143   175.00000  17.32042             13.24163
1198.52604  827.55208   192.00000  16.53707             14.93779
1199.82192  1296.79452  219.00000  19.20077             15.07762
1200.05699  1310.84456  193.00000  17.45516             14.14792
1201.63687  575.93855   179.00000  15.63859             14.65779
1203.86301  794.88356   292.00000  22.76441             16.89788
1201.34091  400.73636   220.00000  20.83383             13.44612
1204.00000  863.60090   223.00000  20.56196             13.91011
1203.18325  955.56021   191.00000  19.22790             12.83388
1203.41825  1514.23194  263.00000  22.30734             15.42554
1200.31034  546.63218   87.00000   11.67933             9.56180
1204.70588  943.52941   204.00000  18.34618             14.21889
1208.03586  1016.20717  251.00000  23.91261             13.52958
1202.17500  1066.30000  40.00000   8.01819              6.43262
1207.18539  601.30337   178.00000  16.59576             13.74065
1207.50735  1885.38971  136.00000  15.48842             11.29947
1210.24153  1482.63983  236.00000  20.23087             15.09432
1213.11304  1442.61304  230.00000  18.53056             15.95976
1213.81944  377.11111   144.00000  15.94850             11.60621
1220.85759  656.77090   323.00000  24.30220             17.16764
1217.40323  589.05914   186.00000  18.40787             13.09676
1221.79692  473.31692   325.00000  22.67033             18.99567
1220.78146  618.23841   151.00000  15.46665             12.52110
1221.64865  776.96396   222.00000  19.29102             14.67194
1223.66820  494.57604   217.00000  21.21490             13.05925
1229.50360  387.48681   417.00000  25.03264             21.41005
1229.93182  806.12879   264.00000  25.85694             13.02865
1228.85024  1003.02899  207.00000  17.70288             15.00706
1230.72000  226.83111   225.00000  18.18908             15.76374
1230.09524  348.88571   210.00000  19.70455             14.11064
1229.87907  719.33023   215.00000  19.24938             14.30381
1231.94268  863.15287   314.00000  25.08256             16.23531
1230.83594  1040.87109  256.00000  21.07697             15.48394
1234.08163  512.53353   343.00000  23.37927             18.92942
1239.92973  197.00811   370.00000  27.66964             17.31419
1234.87975  825.14557   316.00000  24.82264             17.09469
1231.65263  1907.34737  95.00000   11.95846             10.25144
1234.40373  601.57143   161.00000  15.82307             13.05447
1237.22754  616.41317   167.00000  15.11161             14.13817
1238.02604  768.73438   192.00000  17.74346             13.83943
1238.07424  1831.68996  229.00000  19.06279             15.43027
1241.26577  996.84234   222.00000  18.37581             15.69444
1242.04545  246.88430   242.00000  19.08188             16.29475
1241.43925  413.19159   214.00000  18.91669             14.47842
1239.81250  327.88750   80.00000   11.21090             9.07473
1245.29114  783.94093   237.00000  21.56802             14.23518
1245.73029  1308.48548  241.00000  18.41216             16.95367
1251.54307  443.44944   267.00000  25.97424             14.74053
1244.62295  685.28962   183.00000  17.05719             14.00365
1252.54884  696.77209   215.00000  19.57588             14.28381
1247.86508  1133.21429  126.00000  14.99149             10.83238
1252.54861  317.68750   144.00000  16.99260             10.95375
1256.85156  345.24805   512.00000  28.67262             22.97852
1253.55932  500.68644   236.00000  17.97141             16.82439
1255.15247  387.09865   223.00000  20.10943             14.19523
1248.38462  942.96154   26.00000   6.28521              5.37354
1253.28302  747.10692   159.00000  15.67793             13.11329
1253.85475  675.29050   179.00000  17.92678             12.71887
1255.60227  410.11932   176.00000  16.05269             13.96124
1259.38043  1090.65942  276.00000  19.84447             17.83327
1259.90698  1022.72093  215.00000  18.50455             15.02159
1257.12069  1141.73276  116.00000  18.50607             8.45340
1263.33981  871.01618   309.00000  21.43419             18.85747
1262.43262  1073.08511  282.00000  20.33859             17.84797
1258.70701  1883.22930  157.00000  20.56476             11.05156
1260.35676  1781.88649  185.00000  20.82244             11.37421
1263.00513  712.46154   195.00000  17.55491             14.29240
1268.05802  781.55631   293.00000  22.80899             16.43979
1264.50000  632.25000   188.00000  17.43322             13.96416
1267.05179  1295.28287  251.00000  20.70175             15.61319
1266.03571  1808.20238  252.00000  21.09217             15.34058
1267.25581  748.10465   258.00000  19.04175             17.38316
1267.68543  1608.24172  302.00000  22.88551             17.01539
1266.12921  515.42135   178.00000  17.26568             13.20886
1270.51953  992.46484   256.00000  21.91924             15.04231
1267.05056  1144.99438  178.00000  18.16684             13.19146
1270.74684  319.65190   316.00000  29.79667             14.10015
1272.27723  668.05611   303.00000  21.54408             18.11291
1274.34254  641.05525   181.00000  16.81357             13.87620
1272.61224  820.92857   196.00000  18.76508             13.38888
1274.99203  1057.94821  251.00000  20.10031             16.22591
1275.77778  716.83041   171.00000  16.92589             12.95542
1273.76531  912.53061   98.00000   13.40735             9.38081
1273.72973  1169.46847  222.00000  21.13249             13.83750
1277.21000  588.90000   200.00000  16.92432             15.13875
1280.53211  862.33028   218.00000  18.53035             15.18577
1278.66169  1935.00995  201.00000  17.78077             14.40638
1282.01538  699.28000   325.00000  23.96866             17.87612
1279.68639  1864.49112  169.00000  15.35255             14.11039
1284.01770  358.69027   339.00000  23.79424             18.38139
1281.65772  834.12081   149.00000  15.02863             12.64083
1295.22977  463.61489   309.00000  31.35824             13.61727
1290.34862  557.50917   218.00000  18.69144             14.96128
1292.07955  1127.34091  264.00000  21.66851             16.13484
1291.43719  498.73367   199.00000  20.08572             12.96959
1295.17788  1915.36538  208.00000  18.59316             14.30028
1297.61062  1081.99558  226.00000  21.35827             13.76220
1300.30627  1728.66421  271.00000  21.05040             16.65927
1300.11682  694.30841   214.00000  18.76428             14.59846
1304.14981  741.68914   267.00000  25.99276             13.41861
1301.35119  1604.50595  168.00000  17.86511             11.98838
1304.88031  1855.69112  259.00000  20.73612             16.09657
1305.78417  422.63669   278.00000  23.52092             15.65624
1302.69231  760.33516   182.00000  18.40184             12.68878
1304.49206  831.94444   252.00000  19.78570             16.51260
1305.54762  1900.73016  126.00000  13.64694             12.55545
1307.54435  375.35887   248.00000  19.83514             16.05709
1313.27368  1685.67018  285.00000  21.74030             17.67820
1312.39521  204.02695   334.00000  24.04625             18.00626
1316.04698  306.58725   298.00000  22.42823             17.05691
1315.16016  477.42188   256.00000  25.37622             12.92679
1315.50183  1018.45055  273.00000  19.74260             17.79884
1318.12805  1304.37805  164.00000  20.16742             11.04291
1315.70464  1883.10127  237.00000  20.15294             15.45251
1321.05333  1032.62667  225.00000  24.91000             12.00327
1317.01818  706.81818   165.00000  16.37833             12.88144
1318.14474  801.82237   152.00000  17.68407             11.03163
1318.65193  1219.61878  181.00000  25.91731             9.27462
1318.38627  827.32618   233.00000  20.65011             14.46880
1322.35776  359.52155   232.00000  24.03124             12.36079
1324.26866  608.51866   268.00000  19.08318             18.33642
1327.67961  1840.28479  309.00000  26.15217             15.17569
1324.41546  442.58454   207.00000  19.08097             14.00127
1328.64169  1099.25081  307.00000  24.57717             16.66737
1327.30104  774.55363   289.00000  20.50687             18.29307
1327.57812  740.36458   192.00000  16.59986             14.82859
1326.60215  958.37634   186.00000  17.09661             13.86353
1327.40642  850.27273   187.00000  19.46915             12.43106
1329.14754  1617.93443  122.00000  13.11503             12.02887
1329.47273  1298.20909  110.00000  12.72572             11.41766
1333.33333  179.93976   249.00000  20.79190             15.33919
1336.48414  709.80550   473.00000  28.45877             21.42771
1334.27064  888.00459   218.00000  20.37804             13.71813
1335.82249  345.53846   338.00000  25.00378             17.78802
1334.14655  1060.82759  232.00000  18.39165             16.19591
1333.69261  1259.75097  257.00000  23.56803             14.56788
1334.53731  420.46766   201.00000  19.08582             13.50109
1336.27660  678.98936   188.00000  18.63604             12.91807
1335.85714  1021.39796  294.00000  24.71156             15.35351
1334.74031  1661.05814  258.00000  21.01536             15.73462
1334.42126  1902.22441  254.00000  25.86262             12.54344
1332.67188  790.81250   64.00000   9.53718              8.57363
1340.65505  1149.54007  287.00000  21.70049             17.15543
1340.55966  503.45739   352.00000  24.28591             18.60399
1340.76730  1107.75472  159.00000  16.53204             12.43174
1341.16364  153.74091   220.00000  19.14333             14.67073
1347.86454  1124.66932  251.00000  24.89412             14.00542
1344.56345  1528.75635  197.00000  18.22325             14.05412
1341.68595  322.52893   121.00000  13.83579             11.16389
1343.02212  775.96903   226.00000  24.52746             11.84002
1344.01081  960.06486   185.00000  17.04830             14.14863
1346.97797  657.18943   227.00000  21.04127             13.89309
1355.22986  1200.75355  422.00000  34.61163             16.60097
1351.24084  638.26178   191.00000  23.24334             10.53368
1349.29358  1178.70031  327.00000  22.94762             18.91258
1354.32400  1218.30800  250.00000  25.63788             12.86909
1350.20470  1573.49329  298.00000  24.03890             15.81469
1352.74429  1282.71689  219.00000  20.33042             13.85833
1352.18474  441.53815   249.00000  26.22028             12.23104
1355.71489  413.65106   235.00000  20.98413             14.32483
1354.47872  693.89894   188.00000  19.05204             12.65239
1359.16338  807.70986   355.00000  21.84296             20.96237
1357.66505  1139.29612  206.00000  17.97405             14.73479
1356.26752  860.37580   157.00000  16.28070             12.28402
1359.55700  1524.86971  307.00000  21.96394             18.02526
1358.00000  617.81720   93.00000   13.68985             8.64656
1362.83004  579.98814   253.00000  19.82663             16.27595
1364.89143  1041.21143  175.00000  21.74232             10.51647
1363.39336  680.05687   211.00000  21.04168             13.01802
1364.29224  742.86758   219.00000  19.08013             14.68451
1365.11111  1096.29293  198.00000  18.06692             14.07970
1364.04566  789.72603   219.00000  18.63083             15.07381
1364.35976  937.21951   164.00000  16.36973             12.85263
1365.64964  848.72993   137.00000  16.55518             11.25903
1365.10000  1563.32308  260.00000  24.40200             13.91418
1365.80208  362.47396   192.00000  16.38212             14.93838
1368.30769  958.13462   208.00000  19.38740             13.82364
1369.72093  395.27519   258.00000  19.35238             17.09494
1368.33533  429.07784   167.00000  16.68880             12.79296
1369.66901  466.32042   284.00000  31.91043             11.90652
1369.02020  859.83838   198.00000  18.74789             13.59483
1370.83796  926.35648   216.00000  19.03281             15.01242
1369.21659  1480.18433  217.00000  19.54959             14.19818
1372.86765  108.78676   272.00000  24.32026             14.30711
1369.50794  1159.96825  126.00000  14.00066             11.97733
1371.06993  1147.82517  143.00000  14.13352             12.93170
1373.26190  1500.98571  210.00000  18.13602             14.84021
1374.44878  716.17073   205.00000  19.18821             13.71013
1376.39247  493.75269   186.00000  20.06197             11.98606
1378.13115  1079.00000  122.00000  17.27710             9.05975
1378.38372  760.98256   172.00000  16.77635             13.16825
1379.09241  997.31023   303.00000  30.03301             14.21936
1380.37222  908.83333   180.00000  21.07022             11.61064
1379.39205  779.15341   176.00000  17.28318             13.11146
1383.34677  1265.65860  372.00000  33.33923             15.53274
1384.10363  523.69430   193.00000  18.26070             13.67153
1383.08065  975.97312   186.00000  17.81302             13.28593
1383.28492  412.30168   179.00000  20.70576             11.19369
1384.37198  445.57488   207.00000  19.21173             13.91163
1381.83333  1063.47980  198.00000  18.54445             13.82488
1382.53636  630.30909   110.00000  13.03901             10.76011
1381.73611  1020.31944  72.00000   11.33167             8.10773
1386.80137  617.34932   146.00000  16.96856             11.24105
1386.82727  645.73636   220.00000  17.37539             16.29047
1393.50779  591.09657   321.00000  26.98941             15.84370
1391.15525  685.53425   219.00000  18.29917             15.25150
1387.25000  1087.88095  84.00000   11.65705             9.18751
1395.08400  1456.54000  250.00000  24.77385             12.93824
1392.61345  731.18487   238.00000  20.70707             14.83616
1396.00342  857.19521   292.00000  22.74141             16.71434
1394.59172  1202.47929  169.00000  16.11048             13.43151
1402.37021  315.65957   235.00000  23.26314             13.17398
1405.85057  544.08333   348.00000  25.98074             17.16665
1404.01773  880.91135   282.00000  20.99813             17.28272
1402.63721  933.32558   215.00000  18.53440             14.84383
1404.31280  377.04739   211.00000  18.20643             15.03126
1407.99552  562.09417   223.00000  25.01494             11.67165
1403.72941  677.45882   170.00000  15.50880             14.09283
1401.96407  749.49102   167.00000  16.30091             13.08863
1407.39474  996.11513   304.00000  22.24605             17.81004
1407.02083  1083.71181  288.00000  21.91493             16.88885
1405.54412  644.51471   68.00000   11.55610             7.51928
1410.25806  1044.04839  186.00000  20.78998             11.45569
1413.25833  480.62917   240.00000  21.19945             14.60760
1414.70608  964.09797   296.00000  20.04193             19.15305
1411.75479  1103.97318  261.00000  26.39392             12.97258
1414.19340  1172.60377  212.00000  24.45244             11.75641
1414.26066  1186.28436  211.00000  18.05546             15.82483
1414.85185  771.93210   162.00000  16.24959             12.77034
1415.87931  526.67241   116.00000  15.16055             9.93431
1415.32031  699.72656   128.00000  13.51312             12.06473
1424.10887  1135.14113  248.00000  25.90987             12.36185
1418.01351  220.19595   296.00000  27.76111             14.18224
1419.15447  442.01626   246.00000  22.38667             14.16898
1421.45181  892.12048   166.00000  17.18474             12.46028
1422.40000  331.24783   230.00000  19.60201             14.98206
1428.40227  924.94901   353.00000  31.97234             15.32426
1421.70256  416.35385   195.00000  17.08162             14.61504
1421.90909  572.67879   165.00000  16.69320             12.73278
1426.73059  619.89954   219.00000  23.73813             12.05771
1428.78076  587.47204   447.00000  26.99645             21.40383
1422.68649  833.45405   185.00000  16.58560             14.31397
1428.50132  876.77045   379.00000  26.72032             18.45251
1427.20079  1250.79528  254.00000  19.31026             16.98641
1429.20082  1110.86066  244.00000  19.31233             16.25350
1426.50000  1152.84524  84.00000   11.32599             9.52719
1433.40807  668.82511   223.00000  18.79169             15.16742
1432.47393  791.22275   211.00000  17.99947             15.04405
1432.24719  403.85955   178.00000  20.23047             11.25580
1432.68063  1214.57068  191.00000  19.03126             12.84848
1437.99278  1010.06137  277.00000  22.22118             16.59779
1435.92735  1160.46154  234.00000  18.69082             16.19270
1435.85603  1040.45525  257.00000  23.39605             14.77235
1437.45000  473.49615   260.00000  24.07441             13.89901
1444.51256  698.33668   199.00000  20.55091             12.61508
1446.15476  256.36607   336.00000  27.71305             15.55275
1443.69683  613.31222   221.00000  17.59817             16.02820
1443.08511  957.88830   188.00000  15.78309             15.23238
1447.69939  1070.91411  326.00000  23.55083             17.83265
1445.96774  1272.29677  155.00000  18.45911             10.73448
1447.26471  308.41176   238.00000  18.91433             16.10973
1448.30241  350.79381   291.00000  24.32857             15.30486
1453.14687  401.23974   463.00000  34.48000             18.33640
1448.40000  1170.45000  60.00000   9.80860              8.52397
1453.38021  497.00521   192.00000  19.06499             12.89235
1454.21525  554.05381   223.00000  21.18599             13.56130
1455.64561  716.19649   285.00000  21.21571             17.47369
1453.63559  1186.69068  236.00000  20.56907             14.99052
1454.54753  1253.54753  263.00000  20.07545             16.74249
1455.18321  1203.70611  262.00000  19.18796             17.46825
1455.53521  1306.89671  213.00000  19.88455             13.79940
1461.26498  1052.45110  317.00000  24.63838             16.65998
1457.94017  656.64957   117.00000  16.34704             9.24593
1457.62903  733.68952   248.00000  21.32626             15.06421
1462.08075  484.58385   161.00000  17.48763             11.81969
1464.17703  576.65072   209.00000  22.72624             11.78891
1465.65289  623.19835   242.00000  22.40578             14.01366
1464.45106  668.95319   235.00000  23.19549             12.93741
1466.69630  325.85556   270.00000  20.47093             16.83531
1466.20312  1103.85417  192.00000  17.28528             14.18810
1467.12992  1086.52362  254.00000  22.24028             14.73721
1469.46729  699.58879   214.00000  18.13512             15.06690
1473.18107  1148.01235  243.00000  24.44522             12.79768
1472.25909  537.03182   220.00000  19.74358             14.55056
1476.98824  1288.49412  340.00000  25.99058             17.61330
1474.15789  715.17544   171.00000  15.67884             13.95803
1475.85156  263.73047   256.00000  24.30661             14.03073
1486.82781  753.86424   302.00000  37.65167             10.70833
1481.08333  967.89474   228.00000  19.57368             15.46769
1483.17341  1184.34682  173.00000  20.52710             11.04070
1484.03524  903.45374   227.00000  21.61124             14.44362
1483.96053  1029.91228  228.00000  18.79680             16.04399
1486.65476  683.55952   252.00000  23.15322             13.91115
1481.49167  1440.17500  120.00000  13.64532             11.27153
1487.21456  1004.80460  261.00000  22.70907             15.29206
1489.62784  360.30966   352.00000  25.61749             17.94419
1487.66667  613.88718   195.00000  17.74908             13.99026
1488.59903  1102.75362  207.00000  20.08798             13.21549
1488.71333  1192.87333  150.00000  17.10600             11.78473
1489.09231  425.81538   195.00000  16.53193             15.21346
1490.37943  1266.79078  282.00000  22.32645             16.46404
1491.37500  704.38793   232.00000  18.56135             16.31980
1492.17227  393.99160   238.00000  19.25860             15.89646
1496.51689  1407.38514  296.00000  24.19792             16.21066
1496.64444  653.15185   270.00000  20.90428             16.63990
1502.01347  1063.16162  297.00000  33.57144             12.10388
1496.92657  1142.75175  286.00000  20.16414             18.28904
1491.13043  1232.60870  46.00000   8.08865              7.27290
1495.37063  633.34965   143.00000  15.55871             11.75195
1501.44776  805.01866   268.00000  22.60318             15.46790
1496.09434  1238.94340  53.00000   10.05847             6.82334
1501.06667  906.40000   135.00000  13.73189             12.70419
1509.12451  238.92607   257.00000  26.74755             13.19355
1503.12500  536.53289   152.00000  18.66702             10.43331
1509.29085  1123.79412  306.00000  25.54559             15.51993
1509.93750  443.60714   448.00000  27.86115             20.64001
1506.05854  520.03902   205.00000  20.13350             13.16117
1506.64773  612.94886   176.00000  17.67356             13.05512
1506.19807  1341.75362  207.00000  21.12440             12.62489
1510.97627  1092.09492  295.00000  19.49365             19.45409
1512.07492  330.34528   307.00000  22.56736             17.37534
1512.91822  486.55019   269.00000  21.86689             15.73704
1513.02066  1012.12397  242.00000  19.48362             15.87462
1513.07265  635.96154   234.00000  20.06398             14.92758
1514.40000  510.58261   115.00000  14.12631             10.39920
1514.41477  553.43182   176.00000  17.13248             13.11890
1512.31111  904.97778   135.00000  14.27037             12.38219
1515.32812  1167.05208  192.00000  17.83518             13.97225
1514.60577  1366.19712  208.00000  19.00449             14.26500
1517.40780  1294.24823  282.00000  22.02130             16.83243
1518.67757  1520.89720  214.00000  21.08363             13.31443
1522.31714  1489.77429  350.00000  26.06608             17.23014
1524.26638  523.97380   229.00000  20.22025             14.51350
1527.62997  619.68807   327.00000  24.74562             17.28140
1528.06612  1271.93388  242.00000  22.20209             14.28002
1527.66242  1582.89809  157.00000  14.76521             13.67220
1529.54589  666.63285   207.00000  19.44905             13.76574
1531.06015  842.90977   266.00000  24.74719             13.91561
1528.95980  1078.23618  199.00000  18.94015             13.53316
1534.16667  472.10370   270.00000  25.64974             13.57640
1532.58264  1118.23140  242.00000  21.19268             15.14406
1531.17460  1376.50794  63.00000   10.59631             7.58806
1537.32031  452.56641   256.00000  19.10215             17.14339
1535.84358  1189.67039  179.00000  15.78922             14.50605
1537.15417  1060.61667  240.00000  18.91491             16.19346
1536.90090  1135.87838  222.00000  17.78013             16.00268
1538.55882  1562.99510  204.00000  24.71975             10.76012
1540.57534  576.39269   219.00000  20.04626             13.97030
1540.27928  1307.90991  111.00000  13.26515             10.79666
1541.09396  1160.97987  149.00000  14.96355             12.90328
1546.32143  709.85119   336.00000  24.42427             20.86966
1552.16204  757.73843   432.00000  34.97890             16.35823
1542.80451  1107.00752  133.00000  14.09666             12.10522
1545.08982  1016.29940  167.00000  15.44056             13.89187
1548.05138  1262.92490  253.00000  22.32508             14.57011
1545.69925  1378.12030  133.00000  18.05536             9.41095
1547.76667  595.92222   180.00000  18.82001             12.31599
1547.34188  954.23504   234.00000  18.91010             15.77825
1546.65625  1221.67188  192.00000  17.11081             14.42302
1548.07487  521.64706   187.00000  16.48149             14.52822
1552.22936  489.44954   327.00000  23.54972             17.91081
1548.41143  811.12571   175.00000  20.54126             11.21062
1551.73418  1453.77637  237.00000  21.79218             14.00412
1553.33182  1590.17727  220.00000  20.86367             13.45589
1551.86184  921.32237   152.00000  15.22109             12.77467
1553.20000  1165.99111  225.00000  18.26933             15.71380
1555.33178  1057.93458  214.00000  18.93783             15.34573
1553.59649  683.04678   171.00000  19.72426             11.20088
1557.68132  1503.10256  273.00000  24.03053             14.50807
1560.39231  1544.39231  260.00000  24.62509             13.68221
1558.92481  618.98496   133.00000  14.86595             11.43105
1556.82090  1383.62687  67.00000   9.74875              8.84427
1558.79870  1101.85714  154.00000  15.67431             12.58697
1561.90909  1419.03349  209.00000  19.13307             13.96699
1562.52096  1445.40719  167.00000  18.52261             12.00805
1564.47525  598.65347   202.00000  19.12224             13.62484
1565.33152  627.49457   184.00000  21.62815             11.42590
1564.21395  936.86977   215.00000  17.36175             15.78469
1567.19713  500.30824   279.00000  19.47720             18.42943
1568.04762  545.17063   252.00000  23.83887             13.47660
1561.00000  1207.46512  43.00000   8.91012              6.26059
1570.08502  651.18623   247.00000  20.24075             15.66055
1569.74771  862.85780   218.00000  18.68006             15.01399
1568.33696  882.33152   184.00000  17.76771             13.22526
1573.30622  1300.47847  209.00000  19.88801             13.60525
1570.86184  1381.20395  152.00000  15.40150             12.62961
1573.04255  1364.15603  141.00000  15.66945             11.48573
1579.18702  1431.96947  262.00000  21.05853             15.99600
1578.98305  514.49153   236.00000  18.47011             16.34175
1585.37209  1004.28198  344.00000  29.46352             15.07484
1582.33981  1030.93204  206.00000  20.28163             13.42133
1580.47239  831.15337   163.00000  16.49241             12.76804
1580.89080  1118.87356  174.00000  19.36129             11.60081
1584.59790  872.30420   286.00000  19.50554             18.93450
1587.78414  700.38767   227.00000  19.80718             14.71062
1587.68724  1175.79835  243.00000  20.50134             15.12411
1587.79570  611.67025   279.00000  21.25783             17.17729
1590.07631  1043.80321  249.00000  23.04008             13.95260
1590.28125  793.49554   224.00000  20.74658             13.77209
1590.09412  953.61176   170.00000  16.52286             13.21743
1593.73737  1077.12121  297.00000  29.04781             13.72078
1595.09541  1144.42403  283.00000  27.62906             13.31864
1592.81159  487.43478   207.00000  18.02212             14.67052
1592.90761  1236.19022  184.00000  19.93627             11.88730
1595.29480  565.91329   173.00000  15.86002             13.90932
1596.16466  1462.30522  249.00000  18.96009             16.77743
1596.30579  532.42562   242.00000  21.57025             14.56190
1597.21681  1324.26106  226.00000  19.33281             15.02953
1595.50000  62.85507    138.00000  14.60554             12.17124
1598.84286  630.94286   140.00000  21.43038             8.76064
1606.30116  1106.12741  518.00000  35.67099             18.68745
1605.14205  1156.91477  176.00000  21.13107             10.81005
1609.02290  943.85115   262.00000  19.11704             17.82464
1607.82796  651.04301   186.00000  18.49373             12.89891
1615.66548  772.61210   281.00000  24.71627             14.55866
1614.29119  1174.66667  261.00000  19.91792             16.72371
1616.09717  720.60729   247.00000  21.83290             14.53606
1617.97482  1477.70144  278.00000  21.27003             17.08269
1615.70982  632.38839   224.00000  20.69465             13.81922
1621.30363  806.75908   303.00000  21.45597             18.93736
1616.61875  1215.86250  160.00000  15.59002             13.28997
1620.27155  959.84483   232.00000  17.69252             16.72792
1624.20472  1294.54724  254.00000  19.56638             16.82265
1627.09223  1142.86893  206.00000  20.02255             13.28139
1629.85477  738.05809   241.00000  19.28933             16.12951
1631.13793  1343.88362  232.00000  18.84911             16.26028
1631.94286  924.99184   245.00000  18.45103             16.94782
1632.36017  665.62712   236.00000  19.97517             15.05743
1634.92565  1211.01487  269.00000  24.34993             14.13688
1633.39382  1108.00000  259.00000  18.45700             17.93232
1637.00000  561.21076   223.00000  19.54368             15.20819
1639.33333  1409.35461  282.00000  19.32641             18.65870
1639.63666  719.22508   311.00000  24.82993             16.42909
1646.24555  1039.53381  281.00000  27.66835             12.98503
1644.30000  1331.23000  200.00000  18.88727             14.03512
1646.89671  541.00469   213.00000  22.72218             12.34106
1644.85484  995.65054   186.00000  17.36976             13.89361
1644.48858  1072.15525  219.00000  17.24954             16.27789
1645.15638  1148.61728  243.00000  19.72125             15.74827
1645.16667  882.98925   186.00000  18.59951             12.75826
1647.26360  947.56067   239.00000  19.03118             16.03158
1650.82353  587.49412   255.00000  21.59920             15.14076
1654.09873  258.83121   314.00000  20.85934             19.29314
1655.93258  979.88015   267.00000  22.12262             15.40839
1655.88679  1819.95094  265.00000  20.96178             16.19777
1658.68367  621.30272   294.00000  26.46212             14.84003
1660.55385  934.28462   260.00000  19.47993             17.14882
1661.51667  1006.12333  300.00000  22.32538             17.58473
1661.64143  1180.13546  251.00000  23.96624             13.66306
1667.98837  1072.64535  172.00000  18.22673             12.03887
1664.73134  1090.64925  134.00000  15.47163             11.11195
1664.40000  1349.43846  130.00000  13.22237             12.56469
1677.17868  292.59561   319.00000  21.77289             18.74040
1678.70000  588.61667   360.00000  24.37400             19.26844
1678.30964  1169.39594  197.00000  18.67262             13.57893
1680.11558  1135.27638  199.00000  18.64653             13.68036
1683.65992  545.66397   247.00000  22.59691             13.99559
1684.15900  564.65690   239.00000  20.96817             14.81001
1687.23346  1292.89883  257.00000  25.02960             13.20891
1685.38788  1897.78182  165.00000  19.39822             10.98681
1689.36264  1050.03846  182.00000  19.88785             11.68706
1687.83626  1186.31579  171.00000  16.50365             13.26086
1690.24390  1036.11220  205.00000  17.88376             14.63552
1690.55869  934.48357   213.00000  17.08478             15.96694
1692.43478  1356.62733  161.00000  15.90264             13.39865
1693.24378  998.79602   201.00000  17.05052             15.06607
1696.05426  1858.21705  129.00000  17.33043             9.88003
1699.46847  1162.23874  222.00000  19.46833             14.71111
1704.42798  1148.93416  243.00000  25.95625             12.11796
1707.65707  542.30890   382.00000  24.17021             20.44723
1709.17216  1184.64835  273.00000  20.18773             17.34532
1716.74150  969.35374   294.00000  27.36138             14.00721
1712.07522  1029.02655  226.00000  17.61996             16.35074
1713.93064  1080.77457  173.00000  18.06275             12.21638
1712.78899  1098.14679  109.00000  13.25336             10.47266
1719.31250  1128.33036  224.00000  23.61243             12.12441
1726.19247  1207.07531  239.00000  18.66504             16.37594
1727.67901  926.26337   243.00000  20.69096             15.42186
1729.51515  576.79221   231.00000  22.72676             13.02325
1731.91892  1020.93694  333.00000  24.03941             17.81463
1728.84559  1082.69118  136.00000  13.85049             12.57532
1734.43062  1122.59330  209.00000  21.16550             12.64293
1741.56818  1213.40152  132.00000  14.50846             11.64901
1746.91532  1237.04435  248.00000  20.60071             15.57438
1749.24268  579.87866   239.00000  19.93748             15.28902
1747.84375  932.19196   224.00000  18.04855             15.81991
1749.37278  1100.08876  169.00000  19.58048             11.46983
1755.08654  1344.37019  208.00000  20.40861             13.47445
1759.79739  1092.47712  153.00000  16.20321             12.40835
1758.81667  1122.45000  180.00000  17.68614             13.11997
1761.57143  1190.05590  322.00000  23.71651             17.44142
1761.76955  1223.03704  243.00000  19.40181             16.13264
1761.02804  1239.22430  107.00000  12.82121             10.77358
1768.75601  1006.63574  291.00000  21.65793             17.25002
1768.99405  1071.80357  168.00000  18.38078             11.70289
1772.00000  39.69697    99.00000   14.21407             9.15667
1778.07729  1231.08937  414.00000  29.41217             18.99645
1779.15323  989.01613   248.00000  18.70763             17.03790
1784.94492  566.44492   236.00000  19.68886             15.39692
1789.54114  1344.17089  316.00000  25.46151             15.87218
1791.72727  1172.78788  165.00000  17.15750             12.28554
1799.48963  1254.78838  241.00000  22.03805             14.05370
1806.03750  1106.46250  160.00000  15.56538             13.21643
1818.03057  1404.70087  458.00000  36.45678             16.26654
1813.87072  1437.23194  263.00000  20.98799             16.14725
1818.83946  1178.10368  299.00000  21.44325             18.14004
1824.09764  987.86869   297.00000  21.83250             17.38467
1826.57635  1026.19212  203.00000  18.40975             14.06260
1827.89069  1276.57490  247.00000  22.01635             14.39647
1836.70526  161.52105   190.00000  16.80400             14.49128
1841.97600  1187.69200  250.00000  20.43199             15.69760
1844.73799  1022.77293  229.00000  21.54981             13.85597
1843.21698  1483.75943  212.00000  18.99109             14.33293
1852.85938  977.83854   192.00000  18.50286             13.28825
1854.28378  1395.91892  222.00000  20.45340             13.86465
1852.72273  993.65000   220.00000  19.48413             14.47809
1856.35622  1420.15880  233.00000  21.19303             14.02362
1858.76000  1381.96000  200.00000  18.82651             13.73372
1862.03876  1217.61628  258.00000  20.10362             16.57796
1863.42712  1295.36610  295.00000  21.58260             17.56777
1860.97872  1480.78723  141.00000  13.99743             12.83584
1866.17629  1017.66261  329.00000  22.45848             18.91390
1870.45513  928.99359   156.00000  15.03363             13.44345
1872.17904  886.52402   229.00000  18.32307             15.92904
1870.16667  960.80952   84.00000   12.31301             8.71415
1874.42857  1489.50893  112.00000  12.12836             11.79431
1888.52663  822.92899   169.00000  16.58552             13.07512
1887.73214  1352.89286  224.00000  18.62461             15.41589
1888.87283  1480.96532  173.00000  17.66212             12.50952
1898.03169  905.85211   284.00000  20.75321             17.56061
1902.71564  1607.82464  211.00000  20.06786             13.56492
1903.53927  1342.90576  191.00000  16.22210             15.06239
1905.64972  803.30508   177.00000  16.85832             13.49891
1907.06481  1429.47222  216.00000  17.03854             16.26566
1911.44828  535.81466   232.00000  19.03259             15.83958
1920.27368  152.97368   190.00000  17.78249             13.76360
1920.07609  1403.70109  184.00000  17.21896             13.76142
1923.87662  1452.48052  154.00000  15.61296             12.61153
1927.86531  550.96735   245.00000  19.99844             15.66642
1928.63636  1392.16477  176.00000  16.44111             13.68987
1938.58025  1364.16049  243.00000  21.23015             14.64786
1936.82517  1462.16084  143.00000  14.38793             12.66571
1939.71014  1563.24638  138.00000  17.53928             10.16246
1948.55866  486.32402   179.00000  20.15552             11.83302
1944.44860  808.23364   107.00000  13.37952             10.26371
1948.43772  524.53025   281.00000  20.45632             17.74141
1954.60664  613.16588   211.00000  18.83487             14.65753
1961.54819  1379.60843  166.00000  16.03469             13.37912
1964.22010  1409.25837  209.00000  17.58309             15.31914
1966.92308  896.57143   182.00000  16.10622             14.57591
1971.70443  537.59113   203.00000  19.94315             13.42636
1971.72362  490.40201   199.00000  18.71200             13.67177
1970.90000  100.55714   70.00000   12.00033             7.58248
1977.67797  1322.49153  177.00000  16.41524             13.73840
1979.25346  881.61290   217.00000  18.49304             15.08507
1991.38571  561.60714   280.00000  30.70586             13.15676
1990.05093  812.03704   216.00000  24.69110             11.61055
1989.15823  1620.45570  158.00000  16.10930             12.55903
1991.52893  1387.85124  121.00000  13.54831             11.37969
1997.80233  404.77907   172.00000  20.43915             11.31361
1996.88393  1455.18304  224.00000  19.52971             14.76178
1999.23636  1281.96364  110.00000  12.78800             11.41240
1999.51370  164.39041   146.00000  14.74943             12.66692
2001.76923  922.82051   234.00000  18.71174             15.99435
2010.77959  681.10612   245.00000  18.99923             16.56547
2013.71667  1291.67222  180.00000  17.61328             13.05765
2016.76037  1085.34562  217.00000  17.55905             15.94697
2017.40385  1445.66667  156.00000  14.92110             13.72810
2020.64935  969.44589   231.00000  21.59756             13.68852
2021.84848  1002.35354  198.00000  17.51995             14.57330
2025.22078  427.18615   231.00000  20.17376             14.65554
2024.67204  1238.05376  186.00000  18.66975             12.71170
2029.14879  1273.80969  289.00000  21.31458             17.34349
2027.88158  648.07895   152.00000  15.80882             12.42532
2029.46269  817.27612   134.00000  13.44773             12.94558
2032.64734  514.71014   207.00000  18.10613             14.57028
2038.30357  691.68214   280.00000  19.75364             18.46896
2043.11000  1018.75000  100.00000  12.70919             10.80013