# Filename: Nuclei_416_ctrl_005.npz
# Voxel size (nm): (108, 108)
# Area quantity: voxels
# Num nuclei detected: 557
Y           X           AREA       MAJOR_AXIS_LENGTH    MINOR_AXIS_LENGTH
42.66667    518.86036   222.00000  20.58762             13.81234
43.58549    492.78238   193.00000  18.88807             13.12607
77.99190    744.18219   247.00000  21.36185             15.09208
85.53698    1226.59807  311.00000  23.07862             17.33532
95.83260    485.97797   227.00000  19.35963             14.95043
100.99659   455.31741   293.00000  22.27067             16.82481
110.35522   399.98507   335.00000  26.82518             16.36776
117.52209   770.64257   249.00000  19.61941             16.25693
122.85765   811.05694   281.00000  25.71783             15.03388
123.52015   364.86447   273.00000  20.66471             17.05998
127.43802   1143.45868  242.00000  22.32230             13.92090
140.39228   499.65595   311.00000  27.87889             14.74301
138.27778   1100.79861  288.00000  20.84255             17.78371
143.30769   1018.41026  351.00000  30.76601             15.57383
148.41590   1040.92661  327.00000  21.96206             19.16676
162.79429   217.91429   175.00000  18.01056             13.53733
175.70968   504.29032   248.00000  20.02143             15.92907
188.76023   536.40936   171.00000  17.65823             12.34215
197.13410   1466.13027  261.00000  21.88036             15.28731
200.70419   1128.88743  382.00000  30.50375             16.83993
202.02165   547.17749   231.00000  23.25008             12.69337
206.67638   972.36246   309.00000  26.81478             14.90201
206.78899   158.79817   218.00000  17.44433             15.96616
217.30075   504.55639   266.00000  22.16148             15.52789
218.77705   1055.66557  305.00000  21.73405             18.07553
217.80909   1353.29091  220.00000  20.49792             13.67704
220.24579   802.85522   297.00000  21.11555             18.15078
218.34416   1318.49351  154.00000  15.35377             12.97459
221.34932   272.62329   292.00000  22.53210             16.61735
239.33642   1279.30247  324.00000  23.16278             17.91651
249.21101   985.94801   327.00000  24.04297             18.15242
244.69271   1577.15625  192.00000  16.29160             15.11949
243.90361   506.14458   83.00000   12.18984             8.67815
253.18056   492.34028   144.00000  15.84978             11.64614
256.96610   505.32203   177.00000  19.82754             11.61112
265.06926   547.40693   231.00000  23.76607             12.48921
267.79518   579.28514   249.00000  20.76072             15.29313
268.13187   481.04396   91.00000   14.28826             8.09953
279.15408   785.01208   331.00000  26.67248             16.13474
275.57561   529.17561   205.00000  18.85328             13.91711
273.87500   1567.32143  168.00000  20.06605             11.10654
277.73958   472.30729   192.00000  18.47957             13.35388
280.75225   1362.27477  222.00000  22.74448             12.70005
286.20231   585.89017   173.00000  16.02826             13.85990
285.54795   1673.28082  146.00000  14.02884             13.31505
289.24912   1294.50175  285.00000  23.74473             15.50762
292.22925   570.44664   253.00000  26.04059             12.48957
291.68807   1507.92661  218.00000  21.25217             13.48548
292.83758   1422.22293  314.00000  21.85252             18.75016
296.04292   1384.47639  233.00000  22.83716             13.08361
305.92971   710.72843   313.00000  23.70514             17.36000
308.66984   1263.76825  315.00000  24.26552             16.60360
319.25600   619.62800   250.00000  26.37352             12.31547
317.10274   1313.41096  292.00000  21.95761             16.99735
313.76493   1372.60075  268.00000  24.24646             14.26257
318.20536   430.90179   224.00000  18.81592             15.26867
326.60638   171.11968   376.00000  28.42787             17.07303
323.53636   747.65152   330.00000  28.57221             15.21934
328.59875   1398.71160  319.00000  25.17549             16.45987
335.16788   553.99270   137.00000  15.77430             11.08184
333.60550   1418.86239  109.00000  12.94896             10.74599
338.40312   1373.32188  320.00000  23.54721             17.39745
343.21192   1404.64901  151.00000  17.61022             11.00444
345.44214   697.40950   337.00000  26.23840             17.66965
357.05118   1615.91732  254.00000  21.05814             15.64146
358.08092   634.90173   173.00000  19.33569             11.38598
362.65204   1406.99373  319.00000  31.34208             13.46956
368.96581   606.68803   234.00000  22.11071             13.59244
370.08955   1701.32463  268.00000  22.31304             15.48278
372.06859   380.56318   277.00000  24.37990             14.51134
370.65164   447.43033   244.00000  21.50020             14.48065
369.45128   483.13846   195.00000  19.28543             12.92719
377.13497   637.44785   163.00000  18.30042             11.41515
380.88947   51.11579    190.00000  24.67824             10.40677
390.37821   1240.98718  312.00000  32.36989             12.50441
386.44490   668.98776   245.00000  23.22475             13.73350
387.27711   172.54217   166.00000  15.13071             14.11561
391.00658   1376.39145  304.00000  23.25562             16.73123
397.88779   682.35314   303.00000  25.98811             14.95844
397.73684   483.43034   323.00000  26.43890             15.94485
411.17518   1311.69708  274.00000  25.92892             13.53267
408.77011   634.83333   174.00000  16.89634             13.38487
423.67372   1333.68580  331.00000  24.03581             17.66352
424.95288   629.48691   191.00000  19.57096             12.74137
428.87708   299.16279   301.00000  22.69531             17.16302
431.88889   644.52910   189.00000  16.81919             14.37864
438.39153   17.64550    189.00000  17.97910             13.68399
444.13018   624.37870   169.00000  17.37024             12.38410
448.26087   1132.39855  276.00000  20.81710             17.10676
449.85333   483.05333   225.00000  18.24096             15.88060
452.57762   549.42238   277.00000  19.90950             17.84117
454.31188   517.50000   202.00000  17.88481             14.48123
454.30128   1050.75641  156.00000  16.60747             12.00194
459.50000   679.70863   278.00000  24.75365             14.54635
455.66138   1034.53439  189.00000  26.33585             10.01364
459.01309   1165.45288  382.00000  33.67265             15.36840
464.04833   67.69517    269.00000  20.98358             16.76720
467.80612   1322.90816  294.00000  30.03232             12.72485
465.61905   626.66667   168.00000  16.44421             13.17149
464.75532   540.24468   94.00000   16.21686             7.44568
467.51053   607.54211   190.00000  16.51826             14.84379
468.86869   583.24747   198.00000  20.08472             12.62813
471.30000   498.48846   260.00000  24.06854             13.92292
481.15851   1103.41492  429.00000  25.84014             21.27877
484.83246   543.36126   191.00000  17.25020             14.13318
493.56026   285.07166   307.00000  23.62560             16.75451
495.97895   1132.56842  285.00000  20.75308             17.54332
501.96203   597.10549   237.00000  20.52008             14.81673
506.81224   1024.07755  245.00000  26.98990             12.29416
512.28992   519.47479   238.00000  23.12305             13.19804
518.68406   929.50725   345.00000  27.91097             16.26893
516.55072   1110.50725  276.00000  24.41390             14.88432
522.80586   654.23810   273.00000  24.97322             14.01831
524.83486   1146.42202  218.00000  21.38228             13.18285
528.50530   622.65018   283.00000  27.53700             13.53632
528.48052   1071.32468  231.00000  22.69530             12.98922
530.88411   575.15232   302.00000  23.70239             16.47619
546.47510   1116.31034  261.00000  20.31693             16.56015
556.52190   11.97445    274.00000  22.12264             16.25351
565.79657   1183.78587  467.00000  28.07725             22.02806
566.54035   1055.38947  285.00000  21.79456             16.88361
569.47619   1082.52698  315.00000  24.40068             16.67053
567.28198   1118.95640  344.00000  30.71643             14.58060
577.79784   946.18598   371.00000  28.18183             17.08217
586.16610   1034.11525  295.00000  25.85490             14.61074
599.42122   981.54341   311.00000  25.07460             16.10885
603.21981   1190.41796  323.00000  25.25967             17.57751
610.49746   1152.88832  197.00000  19.26960             13.14949
616.81188   1211.00990  303.00000  23.83373             16.53218
612.17500   1113.57500  40.00000   7.93172              6.39592
618.32443   1129.03435  262.00000  21.14541             15.88967
634.46349   1072.61905  315.00000  36.23840             12.32895
635.66288   1044.62879  264.00000  21.92283             15.46559
642.77736   1241.70755  530.00000  35.42619             19.83405
644.43725   960.35628   247.00000  19.53126             16.34146
644.39604   986.51485   101.00000  13.01173             9.89968
653.83951   1135.29630  243.00000  24.49087             12.72152
648.66667   1168.60417  48.00000   9.88542              6.29765
666.99517   1021.88647  414.00000  33.65871             15.86129
668.38966   361.16897   290.00000  23.28575             16.25289
678.01556   1167.15564  257.00000  25.93998             12.73138
680.74427   1001.68702  262.00000  27.33973             12.29293
682.50993   918.67219   302.00000  21.07611             18.32119
680.31034   132.88276   145.00000  16.27254             11.57564
678.05556   1145.22222  36.00000   7.70640              5.98097
687.70607   437.24281   313.00000  23.39017             17.14715
687.85859   976.81818   99.00000   12.70936             10.14874
693.72040   295.84887   397.00000  37.27375             13.83034
705.74830   1009.05272  588.00000  32.33860             23.61799
701.96959   1109.05405  296.00000  25.35259             14.98273
706.74558   1238.33569  283.00000  20.58146             17.66980
713.86716   1254.48708  271.00000  25.34550             13.70295
712.71937   1174.71146  253.00000  20.38981             15.89502
726.64364   1149.69818  275.00000  23.59092             15.26234
728.60563   1050.96479  284.00000  23.67122             15.52404
737.65751   1034.74207  473.00000  30.64573             19.83365
733.52364   244.28000   275.00000  19.70832             17.95041
736.37722   404.24557   395.00000  26.83355             18.96566
743.06842   1763.70000  190.00000  17.31200             14.18379
747.78448   303.34483   348.00000  23.66049             18.79276
751.44658   1116.94521  365.00000  24.27076             19.16270
753.31034   1182.98851  348.00000  27.76488             16.69140
754.08599   260.10510   314.00000  22.43954             17.97433
752.02593   1626.08148  270.00000  20.37786             17.03254
754.53091   1217.98545  275.00000  24.87536             14.32524
755.95932   1065.40339  295.00000  24.31333             15.62510
755.87346   546.12963   324.00000  21.87305             19.20925
758.18874   1082.81457  302.00000  23.99490             16.07017
760.48788   377.05152   330.00000  24.87776             17.06131
762.28821   1007.83406  229.00000  23.05658             12.67136
769.38889   1710.77037  270.00000  22.11166             15.63530
773.21613   1515.62581  310.00000  27.56208             14.85681
774.43216   1798.42211  199.00000  20.75556             12.51936
778.90582   713.45983   361.00000  33.07810             14.44134
791.87129   1171.77888  303.00000  35.16082             11.73538
785.78593   904.12232   327.00000  26.28422             16.01935
788.41535   777.00677   443.00000  38.02749             15.25812
787.49091   346.13030   330.00000  24.80312             17.03541
793.38630   211.55068   365.00000  23.85634             19.54852
792.04082   481.27551   294.00000  21.99055             17.14021
794.65217   821.67391   46.00000   8.56993              7.06227
811.32051   1040.43590  390.00000  27.82046             17.96991
810.31761   1124.40252  318.00000  24.79635             16.51236
811.40217   1236.68116  276.00000  21.45617             16.58525
815.50186   930.67658   269.00000  20.55060             16.91041
820.34709   1023.46602  412.00000  25.19066             21.17676
814.10811   794.18919   111.00000  13.63164             10.51189
819.68310   1075.20775  284.00000  22.46456             16.38028
820.28452   839.14226   239.00000  20.86511             14.71567
818.49640   1824.61511  278.00000  22.95398             15.48577
816.37500   1153.93750  96.00000   12.21797             10.02041
822.39565   983.18696   230.00000  19.37619             15.40876
827.32569   1532.52752  218.00000  25.51926             10.98179
830.80402   774.68844   199.00000  21.66250             12.18804
829.05000   1568.89500  200.00000  17.09142             14.94212
838.80242   897.31855   248.00000  35.05988             9.20950
831.53744   1945.55507  227.00000  21.98886             13.39260
836.59072   1461.85654  237.00000  20.58690             15.91237
838.95885   1202.28807  243.00000  21.94314             14.13543
837.96591   820.43182   88.00000   11.83112             9.48323
838.97590   1168.49398  83.00000   11.53501             9.17271
847.54813   927.00535   374.00000  26.14572             18.36237
845.52896   1106.53282  259.00000  23.58580             14.09960
847.49643   1022.89286  280.00000  28.52504             13.20913
845.37931   987.27586   58.00000   9.08982              8.23326
858.16623   1503.01818  385.00000  45.11542             11.98335
848.71538   1647.61538  260.00000  19.75943             16.98851
855.61754   1087.00000  285.00000  23.80586             15.59240
853.89680   1596.56228  281.00000  21.97921             16.42318
862.26038   476.13962   265.00000  24.75857             13.73445
852.66667   804.87500   24.00000   6.08114              4.93207
858.91867   697.57229   332.00000  32.43629             13.31132
860.34395   832.39490   157.00000  14.36867             13.97019
864.35826   1000.85358  321.00000  22.71844             18.02333
861.13725   1204.25980  204.00000  20.35429             12.80656
864.04500   1021.21500  200.00000  17.01472             15.02422
863.50521   1815.58333  192.00000  16.46654             14.91336
870.53114   878.57875   273.00000  28.72343             12.17064
874.04800   921.04800   375.00000  28.93240             16.93675
869.26649   1167.27704  379.00000  35.38681             15.21544
866.10000   817.38000   50.00000   8.57710              7.38396
870.56853   1558.88325  197.00000  26.18969             9.86197
877.11221   636.64686   303.00000  25.18142             15.71875
880.27586   1701.07586  290.00000  21.97357             17.14334
884.74728   1760.24728  368.00000  30.03798             17.61861
883.26241   1809.92553  282.00000  22.30304             16.14279
881.74752   853.94554   202.00000  16.55412             15.60093
888.74888   1238.70852  223.00000  24.25170             11.78194
887.66502   839.67488   203.00000  17.20824             15.31720
889.07792   1903.16883  231.00000  21.09969             14.37044
895.23188   1629.19928  276.00000  25.49644             14.51739
892.72028   988.55245   143.00000  15.66518             11.65914
894.14943   1018.29310  174.00000  16.73425             13.26921
899.75873   64.11429    315.00000  23.59189             17.17575
894.16667   867.12500   24.00000   5.81101              5.24763
903.36187   1118.19844  257.00000  19.83922             16.78634
902.84286   849.84286   70.00000   12.70312             7.06787
907.18539   1558.35393  178.00000  15.87315             14.34272
912.04527   1016.55967  243.00000  20.29708             15.24466
908.31034   841.03448   58.00000   10.66303             6.93182
914.67451   464.22353   255.00000  22.43133             14.96885
916.26997   822.69421   363.00000  29.31245             16.19039
915.54545   923.30481   187.00000  19.05174             12.64841
917.52161   1189.93660  347.00000  24.76508             18.43446
922.16327   1486.07580  343.00000  27.99174             15.72623
920.20505   957.74763   317.00000  23.09212             18.03823
920.57143   844.16667   42.00000   8.46576              6.29399
930.20357   498.78571   280.00000  23.78879             15.02223
927.95161   877.97581   124.00000  16.43603             9.84413
928.19841   919.53968   126.00000  14.16536             11.52039
931.84118   792.52941   170.00000  15.29087             14.20795
940.28475   932.46780   295.00000  37.49849             10.36260
938.23105   1076.98917  277.00000  27.46326             13.00167
932.90710   1546.88525  183.00000  17.87776             13.13877
932.77564   734.26923   156.00000  17.21176             11.67708
936.89362   779.17021   141.00000  14.60752             12.32611
937.07143   966.94286   70.00000   11.83605             7.55190
944.42972   1158.17269  249.00000  21.45823             14.93816
942.26667   1594.73333  180.00000  17.24837             13.31817
948.03378   79.40541    296.00000  25.03372             15.16272
941.50000   849.00000   28.00000   6.70777              5.25141
946.34932   1559.53425  146.00000  15.40386             12.08347
948.41256   730.59641   223.00000  21.15326             13.89066
950.49569   705.71983   232.00000  17.78296             16.74844
947.45455   886.43182   44.00000   8.89438              6.27121
948.62921   1738.80337  178.00000  20.56805             11.03731
954.79464   673.82589   224.00000  21.38862             13.43806
953.11159   868.76395   233.00000  19.56198             15.28998
959.07422   1089.98047  256.00000  24.81480             13.20537
958.03625   1341.19033  331.00000  25.88126             16.46054
956.67365   141.11976   334.00000  28.45383             15.14767
955.08911   1696.52475  202.00000  19.19496             13.52411
964.71552   915.08333   348.00000  33.23728             13.53382
952.92000   498.44000   25.00000   6.22913              5.01975
962.75060   810.47002   417.00000  27.23451             20.21742
958.79111   1916.40889  225.00000  20.53941             14.03248
962.90102   594.95563   293.00000  24.28814             15.68941
955.80851   967.63830   47.00000   9.54913              6.23700
963.72302   1119.01079  278.00000  23.92860             15.50326
966.62769   1032.63692  325.00000  27.21624             15.37095
963.36842   654.52632   171.00000  15.10745             14.50681
966.18232   777.45304   181.00000  17.32140             13.40812
973.15714   882.90952   210.00000  18.41061             14.80893
971.53608   995.24742   97.00000   12.91994             9.59556
980.91176   835.88235   204.00000  21.58197             12.76292
979.27807   751.85027   187.00000  18.92125             12.78054
974.93750   952.18750   64.00000   10.56338             7.70000
977.31073   1616.35593  177.00000  21.01089             10.76031
978.36813   559.54396   182.00000  16.87979             13.77506
977.61165   697.08738   103.00000  12.80392             10.22704
974.60714   868.17857   28.00000   6.37217              5.54090
986.54196   1340.21678  286.00000  27.31540             13.52224
986.06329   1577.37553  237.00000  26.07665             11.72758
981.82796   2022.61290  186.00000  17.51381             13.65897
986.95253   164.58228   316.00000  28.09560             14.48392
981.79221   740.44805   154.00000  14.85408             13.36691
985.62927   1145.90732  205.00000  19.82055             13.49578
988.59236   637.93949   314.00000  23.56652             17.38339
996.32026   1535.99020  306.00000  27.05179             14.51602
1002.44809  943.74863   366.00000  40.45202             12.03549
1000.27016  1125.07661  248.00000  25.38566             12.98076
997.62212   764.80645   217.00000  18.43559             15.08290
997.98049   831.11707   205.00000  17.79106             14.67083
1006.03977  199.40057   352.00000  30.29536             14.95169
999.02756   529.19685   254.00000  24.44245             13.44271
1001.86740  693.67403   181.00000  18.88104             12.33689
1002.45817  1089.22311  251.00000  20.54473             15.88473
1007.76923  1064.07418  364.00000  34.43607             13.81143
1003.60119  105.06845   336.00000  23.99847             17.94107
1007.16019  958.51456   206.00000  25.92150             10.36854
1004.43318  1991.45161  217.00000  19.37055             14.44552
1005.47500  483.61667   120.00000  17.56545             8.84084
1005.06557  1168.33607  122.00000  13.41932             11.69896
1007.14493  1968.71014  207.00000  17.06938             15.50626
1008.89268  573.85366   205.00000  17.13451             15.29574
1008.67153  622.02920   137.00000  14.24765             12.31202
1014.83125  1036.09375  320.00000  35.34324             13.19695
1010.32990  1097.79381  97.00000   12.39459             10.17749
1011.88652  490.05674   141.00000  16.28190             11.27118
1013.79532  1609.47953  171.00000  20.95555             10.73339
1012.53906  765.46875   128.00000  13.23886             12.33663
1015.44809  830.93989   183.00000  16.64318             14.11107
1014.27826  742.60000   115.00000  15.82436             9.24918
1017.28369  560.59574   141.00000  17.74106             10.14459
1017.49231  1170.25846  325.00000  24.84360             17.05239
1022.87558  500.44240   217.00000  23.12535             12.03434
1018.87879  962.41414   99.00000   14.01035             9.32486
1020.14118  1583.96471  170.00000  16.56175             13.10250
1020.79121  2025.95604  182.00000  17.81534             13.06432
1023.03488  713.76744   172.00000  17.99229             12.24734
1022.74615  913.71538   130.00000  13.84249             12.04210
1033.81789  1361.16613  313.00000  35.77706             11.41272
1021.36364  863.31818   22.00000   6.14652              4.50587
1027.52273  882.82727   220.00000  19.83306             14.23888
1026.68333  690.77222   180.00000  16.92795             13.62632
1028.57831  853.74699   83.00000   18.40981             5.82101
1029.66351  747.99052   211.00000  21.90700             12.29707
1032.58235  837.64118   170.00000  16.83704             12.92301
1032.29661  1660.15254  236.00000  29.44513             10.93358
1035.56311  813.65049   206.00000  17.68073             14.89558
1038.24118  914.28824   340.00000  22.90350             19.44508
1038.00000  153.16763   346.00000  26.71950             16.58957
1039.54682  659.19850   267.00000  19.79971             17.27620
1035.15504  731.19380   129.00000  15.98170             10.43413
1034.39535  1168.27907  43.00000   8.82093              6.39240
1041.45255  1189.16423  274.00000  19.97553             17.58274
1044.09626  644.80749   187.00000  17.44901             13.77859
1047.39016  1628.58689  305.00000  25.93720             15.65269
1045.82895  616.00000   228.00000  20.40927             14.26235
1045.15000  728.36111   180.00000  18.01515             12.87665
1044.73958  1021.34375  192.00000  23.45307             10.85408
1045.59350  1038.04065  123.00000  14.11482             11.47868
1050.40376  837.52582   213.00000  17.35759             15.88578
1048.97076  1687.67836  171.00000  18.57392             11.81961
1049.09615  1793.18269  208.00000  27.98895             10.02758
1057.96599  596.20408   294.00000  28.95905             13.30266
1056.04592  813.74490   196.00000  18.77580             13.39306
1056.11957  777.08696   184.00000  20.42284             12.10611
1066.83902  916.20000   410.00000  33.66063             16.25993
1060.04566  1837.13699  219.00000  18.87226             14.81074
1062.52027  514.61486   148.00000  17.01479             11.15048
1063.41497  1768.21769  147.00000  18.26817             10.44643
1067.08787  618.64435   239.00000  18.24423             17.04525
1067.45522  491.17910   134.00000  16.66170             10.26182
1069.61479  866.98833   257.00000  20.58663             16.31670
1066.35484  890.45161   62.00000   12.67680             6.40224
1069.23810  808.68254   126.00000  15.26981             10.92525
1074.10602  999.90544   349.00000  26.70749             16.93042
1078.02844  790.51659   211.00000  22.09320             12.33214
1077.26540  573.09479   211.00000  17.01398             15.93300
1078.89697  779.97576   165.00000  20.33300             10.47547
1077.87273  1738.59091  110.00000  16.34880             8.67378
1082.90419  944.97006   167.00000  20.57132             10.52575
1082.89189  809.81081   111.00000  14.35238             9.91980
1084.81102  512.51181   127.00000  13.29606             12.37709
1083.01667  759.00000   60.00000   9.65636              7.95510
1083.76106  1394.68142  113.00000  13.59759             10.58476
1092.49500  726.37500   200.00000  21.02284             12.35596
1101.06497  1148.20339  354.00000  24.01526             19.48564
1097.91713  865.26519   181.00000  15.46890             14.93735
1096.28169  493.36620   71.00000   10.36880             8.85260
1099.00909  1396.36364  110.00000  13.48531             10.48776
1109.15242  1788.04461  269.00000  20.51619             16.82554
1104.68605  813.97674   86.00000   12.27533             8.92920
1112.41987  465.25321   312.00000  24.21716             16.61759
1111.07851  779.04959   242.00000  21.77681             14.21021
1104.47368  842.24561   57.00000   10.55211             6.86917
1110.32143  1418.25794  252.00000  23.59781             13.83051
1114.90361  556.48594   249.00000  23.86413             13.37767
1119.03333  529.93333   240.00000  27.23018             11.47874
1117.14865  711.95045   222.00000  24.46406             11.67887
1125.79695  1827.40609  197.00000  19.45808             12.95888
1127.47586  691.60000   145.00000  14.49517             12.76567
1135.73065  1027.09288  323.00000  28.86489             15.45338
1132.27059  1429.44118  170.00000  15.93134             13.61922
1132.05357  1445.03571  112.00000  14.31131             10.07005
1145.65969  1109.73822  382.00000  37.47422             13.33815
1131.70833  1190.04167  24.00000   6.33324              4.88206
1141.67470  870.21084   332.00000  35.69973             12.90717
1143.84868  643.86842   304.00000  29.12215             14.45844
1144.06311  701.70388   206.00000  17.75469             14.86912
1141.94805  528.41558   77.00000   11.43487             8.59149
1141.18000  672.84000   50.00000   9.52408              6.70849
1146.73154  889.71141   149.00000  15.59152             12.25249
1154.77705  626.50164   305.00000  32.75567             12.16344
1146.36364  1293.04545  44.00000   7.83475              7.11686
1148.88462  344.11538   52.00000   9.72651              6.81963
1154.45532  686.25957   235.00000  27.48123             11.37127
1152.81410  791.28846   156.00000  15.31684             13.12747
1166.32166  1080.67516  314.00000  37.03995             11.46738
1156.34247  725.37900   219.00000  17.86225             15.74621
1164.92019  1459.51174  426.00000  40.69603             13.62445
1160.11275  1804.77451  204.00000  21.41987             12.18869
1163.87147  509.71787   319.00000  23.93413             17.76938
1163.09375  984.60096   416.00000  28.31992             19.37150
1163.33939  6.29697     165.00000  17.44478             12.63814
1164.38710  1855.29749  279.00000  21.04840             17.60267
1161.31250  350.68750   64.00000   9.48093              8.68832
1163.87671  787.74658   146.00000  15.17756             12.55077
1166.55856  666.17117   111.00000  14.60026             9.93142
1167.06897  1043.29502  261.00000  20.48329             16.55898
1170.36680  803.21622   259.00000  25.73651             13.41690
1172.10632  942.00575   348.00000  25.12773             18.45534
1173.80000  676.47273   165.00000  17.65656             12.31727
1176.97115  593.52244   312.00000  23.58048             16.91582
1173.39362  1941.43617  188.00000  15.82391             15.35661
1182.29050  536.86034   179.00000  21.70073             10.74631
1189.23967  1166.94490  363.00000  27.11931             17.43858
1185.38166  834.76036   338.00000  28.09255             16.10569
1184.29496  734.55396   139.00000  14.51247             12.35243
1187.79556  752.64444   225.00000  21.76756             13.71445
1195.12828  491.40233   343.00000  32.12680             13.86738
1190.58333  865.21429   168.00000  21.77782             9.84281
1194.09115  1021.21875  384.00000  24.18718             20.38481
1197.57221  1112.78474  367.00000  26.04564             18.39274
1196.34759  685.30481   187.00000  21.84034             11.18091
1199.35220  985.09644   477.00000  25.94966             23.50225
1193.19048  560.97619   42.00000   8.43940              6.30920
1197.43396  774.94811   212.00000  18.33392             14.72450
1200.13772  572.28743   167.00000  17.82964             12.47366
1208.34754  856.50164   305.00000  24.84532             15.93811
1204.96532  524.98844   173.00000  17.06405             12.93600
1211.17526  705.98969   194.00000  20.25831             12.39199
1205.67273  735.00909   110.00000  13.74769             10.44355
1208.89683  743.69841   126.00000  16.97012             9.66956
1211.54762  891.77381   252.00000  20.79451             15.78034
1210.03333  605.16667   90.00000   12.42015             9.25383
1216.99060  995.47962   319.00000  27.12677             15.08570
1213.76429  585.80714   140.00000  16.38523             11.02646
1213.04348  753.79130   115.00000  13.12171             11.16663
1227.45115  1049.08046  348.00000  30.52156             15.10175
1226.55821  946.14925   335.00000  26.56329             16.21863
1219.67692  698.21538   65.00000   11.33659             7.34377
1223.36994  867.50867   173.00000  17.69454             12.59857
1220.51064  563.80851   47.00000   10.93692             5.52437
1222.57955  573.05682   88.00000   12.18152             9.18514
1221.07317  674.06098   82.00000   11.11612             9.38052
1231.65306  522.05442   294.00000  25.82138             14.85773
1230.45726  894.89744   234.00000  20.15829             15.03647
1239.83282  1072.04334  323.00000  34.34500             12.54217
1233.16495  590.48969   194.00000  16.06804             15.39245
1233.94841  1985.99206  252.00000  19.43579             16.85560
1243.42038  832.53503   157.00000  17.37960             11.74438
1245.12298  985.51133   309.00000  23.37452             16.98094
1239.56000  608.18000   50.00000   8.95307              7.13768
1250.75284  756.44034   352.00000  36.98844             12.87185
1248.01847  796.98153   379.00000  27.05298             17.97533
1253.02215  970.32278   316.00000  24.01021             16.91414
1255.18116  919.41667   276.00000  19.11789             18.46463
1254.10398  1540.37003  327.00000  26.92847             16.64244
1254.53358  609.36940   268.00000  24.15095             14.26693
1253.82692  634.15385   104.00000  13.30126             10.29130
1258.60800  845.09200   250.00000  21.00034             15.57356
1258.06780  711.66667   177.00000  17.78861             12.72734
1255.94737  647.44737   38.00000   7.89975              6.19252
1258.63830  658.06383   47.00000   8.37814              7.13319
1267.23045  77.44444    243.00000  19.32019             16.09858
1269.54201  766.90786   369.00000  27.55489             17.12794
1271.42951  904.41311   305.00000  30.79174             12.77073
1272.02439  579.54704   287.00000  25.83052             14.31893
1277.33968  1596.22857  315.00000  24.99694             16.27154
1281.79283  651.70916   251.00000  24.94169             13.23520
1291.07692  988.23873   377.00000  36.96928             13.59008
1281.77215  1232.98734  79.00000   10.76806             9.35789
1292.86250  729.01250   80.00000   10.78595             9.45295
1298.79360  877.47674   344.00000  23.82780             18.53373
1299.96099  1593.52482  282.00000  23.43481             15.69101
1302.62696  1079.83072  319.00000  30.96651             14.20832
1297.30435  689.13043   46.00000   8.56771              7.22111
1305.55921  1667.87829  304.00000  32.67686             12.57748
1305.08511  1484.25177  282.00000  23.68743             15.25907
1306.55623  766.62918   329.00000  28.35224             15.07801
1302.14851  1094.02970  101.00000  14.06416             9.37718
1308.96528  1521.04514  288.00000  22.04836             16.74270
1311.37500  18.72059    272.00000  23.61558             14.70432
1311.11196  929.56234   393.00000  27.79163             18.64012
1317.15258  1038.42680  485.00000  34.30858             19.68592
1311.22039  1714.42434  304.00000  25.57164             15.37296
1317.09009  1440.84685  333.00000  24.69168             17.40600
1321.60692  611.90252   318.00000  21.75069             18.68794
1316.48387  678.74194   31.00000   7.53487              5.36067
1332.37113  645.41237   291.00000  20.68277             18.04194
1332.98397  984.08974   312.00000  22.93583             17.50368
1335.17492  938.01320   303.00000  22.89109             17.23361
1335.23551  138.60145   276.00000  23.94101             14.96785
1335.78475  855.18386   223.00000  21.74029             13.09423
1335.48929  1622.80000  280.00000  22.96568             15.76049
1340.07242  1675.63788  359.00000  27.40881             17.06097
1343.92063  42.20106    378.00000  28.45296             17.10747
1346.45730  828.12100   562.00000  33.06664             22.32435
1343.21036  698.65372   309.00000  21.28245             18.50856
1350.16667  1522.73030  330.00000  32.69323             13.76136
1358.42892  1570.47711  415.00000  24.45023             21.69438
1358.54875  717.97214   359.00000  23.33465             19.83247
1359.37710  811.06061   297.00000  24.84848             15.43325
1350.78723  1001.23404  47.00000   8.91265              6.72769
1360.51420  785.96307   352.00000  25.60567             17.61475
1362.33113  4.63576     151.00000  16.05477             12.46278
1362.82917  1613.00417  240.00000  24.64191             12.50236
1374.95623  1716.65657  297.00000  23.53805             16.15253
1376.22140  1025.19926  271.00000  28.43689             12.29246
1386.20398  886.70149   402.00000  42.45799             12.61932
1385.08696  1440.93623  345.00000  34.38116             13.33751
1401.47987  1692.09396  298.00000  21.56674             17.83264
1409.67667  1634.50667  300.00000  21.63999             17.76619
1420.58621  996.03640   522.00000  31.95558             23.70160
1418.58889  1660.77407  270.00000  22.39733             15.56712
1424.42507  920.72207   367.00000  28.31754             16.88317
1425.15064  864.37500   312.00000  22.55940             17.73448
1427.40909  1764.74432  176.00000  17.09343             13.39607
1438.72917  1713.40625  288.00000  21.75792             17.41170
1445.37742  21.09032    310.00000  24.28139             16.76107
1453.34551  856.27575   301.00000  23.53189             16.52746
1454.33333  893.58696   276.00000  20.63625             17.18147
1461.05387  1611.19529  297.00000  30.63014             12.47408
1468.34737  952.17544   285.00000  27.57623             13.47091
1475.75862  1704.77155  232.00000  19.51330             15.46571
1482.97842  1733.47482  278.00000  21.61395             16.59373
1490.73163  1609.89457  313.00000  22.98026             17.71073
1493.68599  918.72222   414.00000  23.45493             22.63726
1496.91086  967.06128   359.00000  27.77916             17.31014
1509.44371  939.35762   151.00000  14.17967             13.55656
1525.71746  993.16825   315.00000  25.90785             16.19776
1533.38462  941.55556   351.00000  24.80760             18.27305
1630.24000  1576.04000  50.00000   9.15296              6.95673
1642.24038  1903.22596  208.00000  19.16011             13.87840
1680.82031  1937.59375  128.00000  15.41863             10.90796
1688.63060  422.61940   268.00000  18.94649             18.39349
1706.87789  460.11881   303.00000  22.70157             17.12011
1713.54221  520.61364   308.00000  22.72242             17.60835
1722.72685  1791.83796  216.00000  17.06622             16.12511
1746.10932  475.89068   311.00000  21.27182             19.15150
1756.66319  1825.82639  288.00000  22.30000             16.57044
1779.98316  522.84512   297.00000  25.33908             15.32830
1811.38009  1099.29412  221.00000  19.88951             14.17622
1882.90580  382.12319   276.00000  19.99890             17.59796
1921.09153  393.36949   295.00000  22.96570             16.69489