# Filename: Nuclei_416_bidi_60x_003.npz
# Voxel size (nm): (108, 108)
# Area quantity: voxels
# Num nuclei detected: 1141
Y           X           AREA       MAJOR_AXIS_LENGTH    MINOR_AXIS_LENGTH
29.43416    278.64769   281.00000  24.52528             14.66591
55.34568    133.39506   81.00000   12.90634             8.75905
79.56863    222.72549   102.00000  12.98284             10.07268
120.35971   340.64029   139.00000  16.69269             10.84246
132.18056   356.22222   72.00000   10.12037             9.16756
134.29167   207.16667   72.00000   11.25464             8.62650
138.50370   372.08889   135.00000  15.65493             10.98872
145.61702   235.29078   141.00000  16.33383             11.74323
152.34188   196.91453   117.00000  13.19509             11.44761
158.63291   342.70886   158.00000  15.60527             12.97519
161.94819   276.23834   193.00000  16.33514             15.25139
170.29480   314.84971   346.00000  25.11197             17.71339
170.32500   334.72500   120.00000  16.89599             9.08619
177.87970   294.81203   133.00000  14.05143             12.12037
203.94366   385.18310   213.00000  18.63129             14.67285
209.62626   276.42929   198.00000  20.68940             12.43559
209.49419   219.87791   172.00000  16.50821             13.48153
234.54369   440.76214   206.00000  17.64590             14.92886
240.45736   348.62016   129.00000  16.83143             9.96317
248.15209   395.42205   263.00000  20.27685             16.71735
255.19178   456.60959   146.00000  15.85211             11.81761
255.88816   433.95395   152.00000  17.73253             10.96680
271.02841   198.79545   176.00000  16.92535             13.33605
269.21569   417.75490   102.00000  12.66465             10.47589
273.81111   283.62778   180.00000  16.48576             14.06686
278.50282   212.74011   177.00000  18.36771             12.34571
291.11579   430.52632   95.00000   11.55577             10.45122
296.45850   473.43083   253.00000  19.57017             16.54181
294.79070   413.82946   129.00000  14.28685             11.61623
300.86154   294.09231   195.00000  16.68795             15.08548
301.29851   155.80597   134.00000  17.88252             10.13827
302.53982   270.50885   226.00000  19.81131             14.76838
305.87742   419.52258   155.00000  15.16552             13.20521
307.12653   395.46939   245.00000  18.27929             17.10795
319.34470   324.00000   264.00000  19.88339             17.34214
317.95890   360.52055   219.00000  19.42248             14.37886
326.16923   515.80385   260.00000  24.32402             13.73398
324.87000   177.72000   200.00000  18.60432             13.71257
326.98942   397.51852   189.00000  16.69346             14.53434
328.34343   305.42424   198.00000  16.97016             14.87776
332.50318   416.65605   314.00000  22.10811             18.47604
337.42601   116.08072   223.00000  21.70300             13.12303
344.57075   333.01415   212.00000  20.28023             13.45106
345.92754   517.42512   207.00000  19.37719             13.69026
360.77049   548.34016   244.00000  20.82656             15.01320
359.88710   344.34677   124.00000  14.50389             11.01433
365.07353   527.23529   272.00000  22.72145             15.55064
365.31855   397.83468   248.00000  18.69890             16.90676
368.86290   247.23387   124.00000  13.60899             11.62617
379.44019   433.26316   209.00000  17.27638             15.54182
379.00000   172.47917   96.00000   14.11859             8.69818
384.22628   547.02190   274.00000  23.01357             15.95252
391.77751   481.19071   409.00000  25.93747             20.19430
395.62295   843.64754   122.00000  14.43405             10.80312
395.93814   827.91753   97.00000   13.17355             9.46284
403.57190   339.38235   306.00000  22.11252             17.75322
403.16751   366.75127   197.00000  18.16000             13.84409
406.96133   252.40884   181.00000  19.30366             12.12488
413.08911   496.47525   202.00000  17.26698             14.92064
414.39326   35.64045    178.00000  16.86780             13.55519
417.11538   55.14615    130.00000  18.53400             9.87603
415.90338   403.00966   207.00000  19.07366             13.91576
414.36250   828.57500   80.00000   11.40457             9.11830
421.20775   429.71479   284.00000  21.71610             16.94055
424.07166   544.85342   307.00000  25.67329             15.56075
421.58861   255.57595   158.00000  16.38542             12.42940
423.22772   137.06931   101.00000  12.04698             11.17384
435.31905   157.74762   210.00000  19.41494             13.83415
437.69667   340.80000   300.00000  28.76278             13.66956
438.60390   394.29221   154.00000  16.29341             12.09266
443.29714   141.62286   175.00000  15.82522             14.20340
446.37853   382.31638   177.00000  16.09462             14.16074
455.02215   419.39241   316.00000  32.71898             13.73011
455.75912   301.44526   274.00000  29.44900             12.26528
454.01307   47.73856    153.00000  15.44502             12.96106
460.91753   84.19072    194.00000  16.29802             15.28267
460.49558   119.24779   226.00000  20.09766             14.39594
461.29245   324.36792   212.00000  16.82432             16.09560
471.36216   390.52973   185.00000  16.75931             14.05229
470.17722   147.93671   79.00000   13.20970             9.31722
474.24870   66.91710    193.00000  17.08661             14.45683
474.15476   406.66071   168.00000  16.30645             13.16447
480.00467   174.36916   214.00000  22.80031             12.62480
481.13636   135.95455   66.00000   9.47392              9.19020
490.21111   351.41389   360.00000  26.33535             18.51413
481.54286   879.51429   35.00000   6.92632              6.50224
489.05844   233.25325   154.00000  15.88614             12.41089
498.29008   407.74809   262.00000  26.92092             12.75913
494.93548   209.22581   155.00000  15.89366             12.42394
497.81333   379.13778   225.00000  23.74716             12.71823
504.18254   142.68254   252.00000  19.30618             16.67567
505.86885   286.41803   244.00000  20.20897             15.43049
510.26606   265.85780   218.00000  18.12408             15.36250
510.58503   376.90476   147.00000  14.49756             12.96078
515.69298   394.44298   228.00000  21.20913             14.02437
515.08065   162.06452   124.00000  13.77013             11.64612
524.23977   282.70760   171.00000  17.52288             12.45883
525.73154   102.30201   149.00000  14.92810             12.79848
526.43262   406.97163   141.00000  13.98266             12.93090
534.69110   457.76963   191.00000  17.14320             14.29190
535.89785   476.55376   186.00000  16.12002             14.74138
537.93627   418.01961   204.00000  16.96174             15.33907
542.07865   340.85768   267.00000  22.56416             15.16085
543.63514   224.52703   222.00000  20.45481             13.91219
544.17127   51.13260    181.00000  15.78263             14.65225
546.34177   28.02532    158.00000  14.70687             13.70783
547.91901   315.10211   284.00000  21.87154             16.83425
546.81609   1072.90805  87.00000   12.36886             8.97963
553.14414   197.92342   222.00000  18.27609             15.60462
553.09541   259.44170   283.00000  25.42617             14.20579
558.13842   513.28814   354.00000  30.08740             15.36910
556.83794   375.18182   253.00000  26.82276             12.46154
567.47273   186.09091   165.00000  15.13852             13.91715
571.63878   536.20913   263.00000  20.14502             16.88338
569.70386   432.45494   233.00000  26.75628             11.32908
570.88660   1279.40206  97.00000   12.71398             9.94084
573.30049   372.56158   203.00000  20.40446             12.78025
581.91509   291.69340   212.00000  18.80863             14.46965
580.55093   447.88889   216.00000  21.60869             12.96475
582.71774   1277.98790  248.00000  21.97528             14.58690
586.48498   304.64378   233.00000  22.97615             13.09729
584.77311   325.52101   119.00000  13.88783             10.95192
586.54404   48.66839    193.00000  19.53760             12.64315
586.56028   133.49645   141.00000  14.53132             12.38231
586.45038   378.03817   131.00000  15.02258             11.26773
589.58549   179.39378   193.00000  17.37258             14.22360
593.50000   163.33846   130.00000  14.01282             12.13356
600.82988   320.63485   241.00000  18.88630             16.53305
598.10526   77.46053    76.00000   12.29747             8.07475
597.90299   575.44030   134.00000  16.55597             10.82381
606.20879   562.56593   182.00000  19.70469             11.88276
608.48438   292.31250   256.00000  23.24598             14.43721
605.93590   136.87821   156.00000  14.87745             13.44311
606.93220   572.65254   118.00000  15.39746             10.32183
607.05405   64.54054    148.00000  16.39756             11.60234
614.74679   1202.99038  312.00000  29.43326             13.87266
609.94149   1276.25000  188.00000  16.91829             14.27517
610.21318   519.82171   258.00000  23.36076             14.40770
614.33333   1367.09020  255.00000  21.69571             15.01633
612.50855   212.21795   234.00000  19.51570             15.30154
615.09705   274.06751   237.00000  20.66068             14.86427
611.34921   1380.76190  63.00000   9.25889              8.67320
617.66269   440.18507   335.00000  32.48846             13.60576
614.72973   118.63063   111.00000  13.17097             10.91337
617.41026   171.71154   156.00000  15.91116             12.55717
626.70539   486.32365   241.00000  19.14466             16.14902
627.90052   1243.76963  191.00000  19.29422             12.63929
631.74502   1175.23506  251.00000  23.97819             14.44038
631.12785   1355.31507  219.00000  18.61810             15.07638
630.56522   320.38164   207.00000  18.33315             14.41783
630.89706   395.48039   204.00000  17.09290             15.20740
631.93237   422.37681   207.00000  21.67600             12.83410
634.96273   1313.54348  322.00000  23.54462             18.00368
635.95858   176.67456   169.00000  15.91706             13.53767
638.81028   21.29249    253.00000  20.42502             15.83425
640.50000   362.44094   254.00000  20.09013             16.29792
639.57914   750.85252   278.00000  20.25107             17.49018
638.60335   591.09497   179.00000  15.92576             14.42140
643.94340   72.04403    159.00000  15.25227             13.28319
649.33659   105.80000   410.00000  25.85501             20.46228
645.82041   1186.11837  245.00000  19.41098             16.15461
648.04000   1387.53600  250.00000  19.63202             16.65008
647.96454   202.89362   141.00000  16.02936             11.33345
653.90500   282.74000   200.00000  19.42867             13.22803
658.76613   1400.15323  124.00000  15.68021             10.10156
661.15556   1294.77222  180.00000  17.80224             13.00242
662.11371   1248.21405  299.00000  20.97833             18.29121
664.21918   1169.61187  219.00000  19.66172             14.23130
667.28013   1442.44300  307.00000  27.36725             14.98555
661.78061   203.59694   196.00000  21.18487             12.07777
667.16268   171.49282   209.00000  17.95314             14.92171
667.34796   1341.95925  319.00000  26.86461             15.67348
671.68136   311.50169   295.00000  21.03435             18.43246
669.54651   117.76744   172.00000  16.18335             13.59169
669.68182   327.38636   176.00000  16.88952             13.32152
670.08475   594.29944   177.00000  18.84266             12.00814
672.04152   76.80969    289.00000  21.46111             17.24374
676.90706   1219.69145  269.00000  21.94694             15.88812
677.53405   431.80645   279.00000  23.42663             15.24594
681.90625   1151.28472  288.00000  31.70503             11.85879
679.02817   1285.93427  213.00000  19.27089             14.10113
683.54225   706.88380   284.00000  20.60313             17.66509
684.36364   332.55051   198.00000  17.61389             14.48226
684.58427   3.83146     89.00000   11.60980             9.94668
689.61789   409.38211   246.00000  19.26325             16.32778
690.81928   176.75904   166.00000  17.09194             12.40305
690.97633   1371.48521  169.00000  17.94375             12.04026
690.41414   137.98485   198.00000  17.94179             14.10318
694.09542   1330.61832  262.00000  21.82942             15.36800
694.86166   1233.72727  253.00000  20.76752             15.66561
695.36078   1466.03922  255.00000  22.08435             14.97376
701.58503   192.86054   294.00000  24.76710             15.13523
697.09735   692.15487   226.00000  18.21521             15.85967
699.96951   1411.34756  164.00000  15.68280             13.34367
701.03971   366.77256   277.00000  21.25175             16.73108
706.53275   1182.67249  229.00000  23.20144             12.72325
704.48889   1288.95873  315.00000  29.67980             13.83925
703.82759   649.13793   145.00000  14.51492             12.74738
705.69955   1201.12556  223.00000  20.96887             13.58745
707.29949   78.19797    197.00000  16.76743             15.00725
708.68639   115.28402   169.00000  15.41398             13.96934
714.52209   1452.89960  249.00000  21.33113             15.05101
714.17818   688.75636   275.00000  20.58146             17.04306
711.56771   1398.91667  192.00000  16.15683             15.28962
717.67136   639.88263   213.00000  18.46498             14.67799
717.63866   94.31092    119.00000  14.94404             10.14837
723.82745   1217.70980  255.00000  23.24145             14.52851
719.49444   1277.46111  180.00000  18.93333             12.16524
723.79152   1376.07067  283.00000  21.28930             16.97840
722.11921   128.83444   151.00000  15.94014             12.04302
722.75221   59.25664    113.00000  12.98409             11.20036
724.51685   393.22472   178.00000  17.38657             13.07696
728.65704   447.55596   277.00000  22.62927             15.65946
724.06306   1491.16216  111.00000  12.63590             11.21105
726.75490   334.59314   204.00000  17.78707             14.63579
729.29557   1342.30542  203.00000  20.69470             12.53534
734.23146   1151.82022  445.00000  27.19417             21.02522
736.74837   1176.32680  306.00000  24.58588             16.69808
733.98339   1298.62126  301.00000  26.75418             14.49025
734.05221   632.14859   249.00000  21.37936             14.85580
731.81503   1244.63584  173.00000  18.55151             11.93789
737.94924   81.34010    197.00000  17.70302             14.32049
736.05882   324.31373   153.00000  16.93623             11.64415
736.18943   135.34361   227.00000  25.46116             11.54408
740.65385   1493.57143  182.00000  16.25586             14.29942
739.64885   1535.47328  131.00000  13.84293             12.09408
741.33636   368.02727   220.00000  18.26897             15.47270
745.97143   1278.02449  245.00000  25.44436             12.75478
744.19095   305.65327   199.00000  17.42582             14.55002
744.56129   66.59355    155.00000  17.05405             11.67316
746.25000   9.25000     188.00000  17.15822             14.04324
747.60759   1304.25949  158.00000  17.88323             11.34013
748.92821   1526.85128  195.00000  24.35041             11.32529
750.88535   183.62420   157.00000  14.69906             13.62894
753.82659   287.22543   346.00000  27.67525             16.40951
754.40097   1406.11594  207.00000  21.16489             12.78753
751.49711   1254.54913  173.00000  19.12992             11.62499
755.43162   1469.43590  234.00000  21.76151             13.89357
759.86340   161.13918   388.00000  27.64783             18.08740
757.27602   341.89593   221.00000  19.18082             14.74022
760.01163   1325.39535  172.00000  17.91901             12.28864
758.88406   1378.50000  138.00000  15.06989             11.73570
762.94194   113.45806   310.00000  23.99122             16.80872
761.73563   376.53640   261.00000  20.98893             15.92979
762.78547   482.73356   289.00000  30.98662             12.51735
766.90667   81.28667    150.00000  15.63666             12.25999
772.94512   1195.76220  328.00000  25.02956             17.18713
772.27393   1228.33333  303.00000  22.15514             17.83848
766.29452   1532.71918  146.00000  13.96482             13.42376
769.48318   193.51376   327.00000  30.78191             13.84277
769.24000   1354.81714  175.00000  16.36156             13.71078
773.41479   403.24116   311.00000  27.15923             14.87153
773.05612   501.83163   196.00000  16.24761             15.46559
772.70642   519.79358   218.00000  20.01068             14.02253
773.40476   27.17857    168.00000  16.11696             13.33694
776.14563   1261.11165  206.00000  19.79766             13.28329
774.14110   1307.53374  163.00000  15.77936             13.15038
774.84810   95.06329    158.00000  15.51403             13.09346
774.27049   1365.77869  122.00000  14.31449             10.88058
776.90535   538.84774   243.00000  22.32331             14.15214
782.62185   1405.11765  238.00000  27.83048             11.04143
781.21739   1588.62451  253.00000  19.15702             17.12880
781.29714   49.49714    175.00000  17.25070             13.38466
780.75862   117.68276   145.00000  14.45529             12.88378
784.76238   1420.89604  202.00000  19.70731             13.09867
786.59563   1453.55191  183.00000  21.10682             11.02387
785.50532   289.34574   188.00000  16.27398             14.77093
792.18800   391.42400   250.00000  21.68809             15.27485
794.33555   467.01661   301.00000  23.78198             16.18170
790.77852   1613.14765  149.00000  14.38026             13.21660
792.00505   1684.44949  198.00000  16.99602             14.85088
793.88889   338.68889   270.00000  24.31909             14.31571
795.01010   1382.29293  198.00000  19.39614             13.30114
796.37572   1708.74566  173.00000  16.35496             13.57730
797.21212   266.29293   198.00000  22.54312             11.50221
798.38650   1491.00613  163.00000  20.16348             10.52140
800.59091   414.45804   286.00000  21.05667             17.48470
800.52074   174.36406   217.00000  17.78331             15.78031
803.78521   1434.20070  284.00000  20.93379             17.62359
806.70640   609.07267   344.00000  28.72317             16.65043
804.12803   124.77855   289.00000  30.06244             12.85771
803.66412   1413.74046  131.00000  13.67109             12.21769
807.04661   1565.11864  236.00000  19.07761             15.82280
811.09290   55.07650    183.00000  15.94668             14.69495
811.53879   1172.55603  232.00000  18.31975             16.12993
810.53872   1227.68350  297.00000  28.37118             13.46733
811.73180   1338.21073  261.00000  20.37208             16.51767
809.36538   1480.17308  104.00000  12.87849             10.56073
811.76552   1465.46207  145.00000  14.76130             12.58521
810.90355   1598.88832  197.00000  22.94194             11.32174
816.22530   511.43478   253.00000  21.47487             15.06787
815.34104   86.27457    346.00000  24.65137             18.14952
813.71008   541.26471   238.00000  20.59764             14.88648
817.31579   220.83684   190.00000  17.42543             13.93883
817.14410   340.17467   229.00000  17.73651             16.49195
819.79872   731.41214   313.00000  21.09088             19.07545
819.58654   1406.43750  208.00000  19.63708             13.53241
818.20787   1531.69101  178.00000  16.77347             13.67785
825.01887   290.53459   318.00000  26.02364             16.27292
823.07895   325.47807   228.00000  19.02673             15.38451
821.46465   661.21212   198.00000  21.77093             11.65471
821.20530   1289.03974  151.00000  14.93900             12.97249
827.56379   1234.44856  243.00000  24.84715             12.48510
824.79459   33.45405    185.00000  16.49379             14.39079
825.20588   1485.22794  136.00000  16.22331             10.69913
828.33229   1319.39185  319.00000  25.85547             15.93792
824.45652   1415.54348  46.00000   11.35626             5.40702
827.62085   1456.62559  211.00000  17.73775             15.19276
826.76667   1634.63810  210.00000  18.57070             14.52127
823.44828   1664.68966  29.00000   6.25879              5.86653
833.44737   1340.52193  228.00000  30.35433             10.66727
828.89510   1422.13287  143.00000  15.95777             11.44138
830.45192   61.17788    208.00000  17.39640             15.29627
828.31818   131.30909   110.00000  12.88749             11.24603
826.42857   398.34286   35.00000   7.52656              5.91510
830.27477   1562.91892  222.00000  18.64624             15.18341
832.26432   368.80617   227.00000  20.61166             14.33196
834.13974   500.20961   229.00000  18.64779             15.69233
833.34807   1539.10497  181.00000  19.44590             11.97542
834.76115   582.96178   314.00000  25.66676             16.31851
835.97297   1360.31532  222.00000  18.08170             15.88101
837.57818   1609.69455  275.00000  20.18596             17.38039
832.27907   664.06977   43.00000   8.72316              6.24881
835.42143   177.15000   140.00000  16.34900             11.08513
838.60819   1648.58480  171.00000  16.06676             13.67078
838.60000   164.55455   110.00000  13.96303             10.17076
841.97740   383.00000   177.00000  19.80326             11.50991
844.14237   442.30508   295.00000  27.77926             13.83795
841.62679   1166.67943  209.00000  19.45985             14.12406
843.18552   410.76923   221.00000  17.97145             15.70211
842.35766   223.04380   137.00000  14.76842             11.81698
848.91707   1484.35122  205.00000  19.44369             13.63052
848.45198   1673.71751  177.00000  19.16493             11.95291
848.52062   364.37113   194.00000  18.06597             13.85149
849.83230   1439.56522  161.00000  16.07175             12.79318
852.65737   1179.01195  251.00000  21.41277             15.02757
851.57669   191.31288   163.00000  16.62939             12.68637
850.32386   321.15909   176.00000  15.68892             14.34801
852.28889   33.05000    180.00000  15.85247             14.58277
847.78571   1345.50000  28.00000   6.00000              5.89015
857.84848   260.41414   297.00000  25.01316             15.26328
854.24581   1380.22905  179.00000  15.79889             14.48201
853.55455   169.83636   110.00000  16.05380             8.73339
856.81633   1495.95238  147.00000  14.41388             13.08024
858.89062   1665.85938  192.00000  16.80658             14.66394
857.91275   1421.00671  149.00000  16.24529             11.80241
859.92121   1573.12727  165.00000  17.42916             12.07498
863.25101   1245.50607  247.00000  22.94458             13.78386
861.49359   202.17308   156.00000  14.68160             13.62393
857.64000   531.12000   25.00000   6.42118              4.92996
866.12274   1465.38989  277.00000  21.78249             16.52800
862.97590   129.68675   166.00000  16.40290             12.90621
861.46479   1485.76056  71.00000   11.42071             8.24685
861.45536   67.61607    112.00000  14.69029             9.73679
867.82609   510.32016   253.00000  19.86037             16.37973
867.65546   597.67227   238.00000  19.73055             17.21721
865.20000   174.47200   125.00000  14.26160             11.16647
871.58273   327.13669   278.00000  25.11122             14.27014
866.31579   1542.09023  133.00000  16.36771             10.36315
873.40613   1563.23372  261.00000  23.76268             14.15101
870.81857   438.64979   237.00000  18.22304             16.63347
871.63187   1652.54396  182.00000  16.13822             14.43121
872.57627   553.36017   236.00000  18.51895             16.24698
870.91566   145.49398   83.00000   12.35539             8.61778
871.23171   22.17073    82.00000   10.56661             9.95585
873.52336   8.22430     107.00000  13.27579             10.38085
877.52459   1373.09290  183.00000  20.92579             11.25447
875.83673   42.40816    147.00000  16.84672             11.12976
875.30159   71.80159    126.00000  15.59234             10.34026
876.42424   160.55556   99.00000   12.48955             10.18174
876.81081   316.04505   111.00000  12.84137             11.11968
875.93162   1234.53846  117.00000  15.04086             10.03408
878.71674   218.20172   233.00000  22.86331             13.10389
879.75845   381.74879   207.00000  17.64606             15.10117
876.22222   1327.86111  36.00000   7.50117              6.10740
882.65605   412.43631   314.00000  22.03928             18.22384
879.90798   601.30675   163.00000  17.00631             12.35829
881.90116   151.05814   172.00000  23.29322             9.54825
883.38000   1355.75333  150.00000  14.56468             13.16357
886.68284   1523.14552  268.00000  21.92818             16.00226
887.27572   295.85597   243.00000  18.39998             16.85107
883.46269   1156.94776  134.00000  14.98231             11.55398
888.62882   64.68996    229.00000  21.34364             13.77641
885.94156   1232.64286  154.00000  16.61728             11.94811
889.29717   652.56604   212.00000  19.21584             14.18426
890.33735   32.04819    166.00000  16.92805             12.59441
890.54150   597.77470   253.00000  25.59020             12.77356
891.45985   1147.01460  137.00000  14.46354             12.22072
889.73529   1409.09559  136.00000  15.24861             11.40592
893.68649   1271.84865  185.00000  16.88766             14.46721
890.58503   1309.91837  147.00000  16.99619             11.50787
895.95279   213.51931   233.00000  19.58899             15.30372
894.82700   274.71308   237.00000  20.91917             14.52313
893.06000   147.05000   100.00000  13.20193             9.65875
897.93243   338.21622   222.00000  18.38230             15.42461
897.37668   436.97309   223.00000  17.36166             16.48820
898.89041   480.38356   219.00000  23.85627             12.17017
896.60000   1354.65556  180.00000  16.66435             13.75892
898.14179   1317.14179  134.00000  14.35955             12.00852
896.44624   1605.14516  186.00000  18.11261             13.21215
899.85000   88.89167    120.00000  15.63249             9.93365
899.91549   1418.68310  142.00000  14.80868             12.32180
902.20339   1744.07797  295.00000  20.39519             18.65101
902.40000   1257.88205  195.00000  17.54294             14.24856
903.84656   1533.58730  189.00000  18.04814             13.37964
908.56725   661.11404   342.00000  27.36391             16.48853
905.36905   1463.59524  168.00000  16.29029             13.28505
907.80000   1409.36250  160.00000  16.44053             12.48866
920.35912   362.53867   362.00000  25.82195             18.77760
907.95918   554.30612   49.00000   9.95955              6.62830
913.12222   1583.67407  270.00000  25.54170             13.57863
913.60727   254.22182   275.00000  23.90205             14.74279
917.31935   1171.78065  310.00000  27.56569             14.48654
913.51079   492.92086   278.00000  27.64332             12.94719
914.38496   1296.55310  226.00000  18.05185             16.06727
915.09502   117.57014   221.00000  19.22452             14.87033
915.03125   1209.28646  192.00000  16.44705             14.89125
914.58278   65.54967    151.00000  13.95471             13.79621
916.84831   1497.30899  178.00000  17.05728             13.38819
919.42593   462.37500   216.00000  18.37796             15.04024
919.69756   1517.77561  205.00000  17.78432             14.80557
916.14789   1690.58451  142.00000  15.33793             11.83224
919.74205   1117.63604  283.00000  23.30713             16.40380
919.00725   1422.52174  138.00000  15.29105             11.50054
920.75000   1394.75000  184.00000  17.08750             13.95396
921.23039   1623.94118  204.00000  19.88079             13.20155
920.30100   581.95318   299.00000  28.98361             13.39661
921.50588   1377.44118  170.00000  17.75020             12.44203
921.47692   1646.55385  130.00000  15.26235             10.94840
922.04233   202.73016   189.00000  16.73005             14.45048
923.61881   229.47525   202.00000  16.21408             15.88313
925.10169   1448.53672  177.00000  17.71976             12.92015
923.80189   407.86321   212.00000  19.47399             13.96446
927.95192   331.24679   312.00000  24.59394             17.77274
924.82301   7.68142     113.00000  12.53936             11.57669
926.46190   1708.01429  210.00000  18.98364             14.13724
928.66802   171.13360   247.00000  19.15767             16.51313
928.87129   422.45545   202.00000  19.47345             13.25205
923.09091   671.09091   22.00000   5.50282              4.97265
929.70476   1285.06667  210.00000  18.92600             14.32540
928.49038   1360.52404  208.00000  19.28718             14.12560
931.02727   270.80909   220.00000  21.68828             13.00649
930.91195   1315.90566  159.00000  16.81329             12.17546
930.22561   620.40854   164.00000  14.58927             14.34284
932.74566   1743.33526  173.00000  19.57986             11.36332
936.09408   710.89895   287.00000  22.94268             16.07445
932.79679   1529.63102  187.00000  18.54100             12.87046
932.15044   1590.46903  113.00000  13.56446             10.65051
938.02335   1550.64202  257.00000  23.39750             14.11817
937.07860   398.13974   229.00000  20.51682             14.56301
932.06667   306.26667   30.00000   6.72497              5.88494
937.87692   1250.32308  260.00000  19.40398             17.38711
936.64550   1636.56085  189.00000  19.57802             12.49451
937.25521   368.34896   192.00000  23.06629             10.63591
941.86879   634.56028   282.00000  22.32426             16.30177
939.57143   119.55556   189.00000  19.21506             12.70773
941.98947   1320.15263  190.00000  20.81825             12.03480
939.79268   1473.48171  164.00000  17.81640             12.26654
941.02551   140.47449   196.00000  16.33822             15.26303
939.95238   1494.99206  126.00000  14.60307             11.04890
943.36634   61.54455    202.00000  19.44669             13.49307
944.48691   187.96335   191.00000  18.38074             13.26763
941.82031   1577.35156  128.00000  13.85291             11.82593
948.52762   532.67680   362.00000  27.04908             17.67698
943.67358   1442.08808  193.00000  19.11379             13.06520
944.77083   1774.64583  192.00000  18.01027             13.65466
944.73026   278.84868   152.00000  17.38898             11.21504
946.73333   592.61250   240.00000  27.97308             11.29749
948.26064   1342.87766  188.00000  21.47743             11.44970
945.23148   516.10185   108.00000  13.46160             10.35584
951.23383   1385.98507  201.00000  21.17339             12.20403
949.61600   373.74400   125.00000  13.87617             11.52163
950.51220   1566.78049  164.00000  15.92656             13.13756
949.89720   48.85047    107.00000  11.87080             11.50442
950.88827   175.79330   179.00000  17.90011             12.76338
956.16140   1665.35789  285.00000  24.08136             15.78165
950.89313   1757.83969  131.00000  14.43856             11.61874
957.73913   29.37681    276.00000  25.00809             14.74773
953.69565   1218.21739  230.00000  19.49489             15.16195
953.35204   1251.83673  196.00000  19.73987             12.77791
950.38889   723.13889   36.00000   7.34501              6.16353
955.98039   144.69935   153.00000  14.60400             13.38677
960.30605   458.62633   281.00000  25.61124             14.31636
957.12418   1335.94771  153.00000  14.58166             13.41543
958.09524   1458.22222  189.00000  19.73600             12.41220
957.37705   98.32787    122.00000  14.83376             10.50672
960.72059   291.11275   204.00000  23.23474             11.52781
960.87013   119.66234   154.00000  14.83010             13.41060
958.91892   403.44595   148.00000  23.87312             8.39422
964.18734   1290.07848  395.00000  22.94729             21.94659
961.93548   58.26344    186.00000  19.98066             12.28446
957.43548   716.95161   62.00000   9.85009              8.00206
962.63388   1511.47541  183.00000  20.35316             11.61161
964.50360   1132.38489  278.00000  22.90896             16.32857
965.36213   830.18937   301.00000  23.37969             16.51760
962.61667   1497.82778  180.00000  17.42710             13.28505
968.30233   1416.38140  215.00000  21.64032             12.72317
965.97340   1529.83511  188.00000  17.18970             14.36543
965.45775   1594.07042  142.00000  17.99235             10.04489
965.05932   8.16102     118.00000  13.22088             11.45329
966.58108   1624.67568  148.00000  14.46240             13.08484
971.69014   1549.05164  213.00000  20.99576             13.10282
973.96813   644.71713   251.00000  22.20776             14.65204
972.25806   275.33871   186.00000  19.89568             12.07737
971.32468   378.94805   77.00000   10.79858             9.15657
974.72152   1449.14557  158.00000  17.70151             11.42563
975.93427   1478.19249  213.00000  22.92701             11.93567
974.06897   65.08621    58.00000   9.54821              7.92740
977.80579   745.16529   242.00000  19.86012             15.64396
978.63265   566.08673   196.00000  17.74422             14.18270
977.09032   624.27097   155.00000  14.96738             13.20465
975.12245   342.30612   49.00000   8.48004              7.35004
982.05357   826.11429   280.00000  20.80848             17.54206
980.72131   149.35656   244.00000  20.55508             15.18786
976.00000   444.38462   26.00000   7.60567              4.30769
981.62346   1378.32099  162.00000  18.40785             11.26338
979.33784   10.90541    148.00000  15.80634             11.99441
981.63043   775.13587   184.00000  16.51716             14.21292
981.54268   1542.31098  164.00000  19.40249             10.83427
982.80105   238.74346   191.00000  16.67001             14.72844
984.13376   495.45223   157.00000  15.72956             12.78248
982.15079   588.30159   126.00000  14.14394             11.47681
981.76923   201.49451   91.00000   13.62653             8.66300
987.96507   398.29694   229.00000  22.36451             13.32909
985.36184   1622.68421  152.00000  15.15064             12.82799
986.07471   1688.02874  174.00000  19.28741             11.57619
985.45872   23.95413    109.00000  13.41927             10.44381
985.65487   281.39823   113.00000  15.07132             9.61128
987.95082   451.01639   183.00000  16.31378             14.33262
986.01613   545.34677   124.00000  15.39655             10.31685
987.86179   578.67480   123.00000  15.51128             10.16310
987.08772   1508.02632  228.00000  20.95212             13.96352
988.14925   374.92537   134.00000  15.34351             11.30631
993.25106   518.05957   235.00000  29.13679             10.72159
993.76000   841.97333   300.00000  22.59476             17.24212
989.60000   1733.45909  220.00000  20.74452             13.51719
989.46369   530.25698   179.00000  16.21947             14.04727
992.97740   1429.92090  177.00000  19.03796             12.00853
988.68868   416.63208   106.00000  12.94596             10.43247
992.70312   604.65104   192.00000  18.43125             13.27643
995.62914   1288.78808  302.00000  21.14177             18.66577
992.80753   645.94561   239.00000  22.28601             14.00654
993.58125   226.38125   160.00000  16.33881             12.60604
995.40076   664.95420   262.00000  21.90045             15.34625
996.48848   79.74194    217.00000  19.43707             14.32695
997.71859   1350.01508  199.00000  17.17605             14.93954
997.74091   203.35000   220.00000  20.83874             13.51444
1001.61189  1702.31818  286.00000  23.10363             15.95219
1003.71893  330.97041   338.00000  25.35046             17.11239
998.58333   347.81410   156.00000  15.20397             13.14108
999.71591   1263.84659  176.00000  18.37023             12.33816
998.18072   1561.51205  166.00000  16.05085             13.19053
1001.21645  781.98701   231.00000  18.80365             15.68382
999.55147   1533.93382  136.00000  16.81458             10.36305
1003.10549  1461.12658  237.00000  21.86734             14.02955
1006.71825  1620.94048  252.00000  24.78331             13.21676
1004.56250  567.66071   224.00000  18.47921             15.47948
1004.97525  177.59901   202.00000  17.63187             14.61994
1008.91860  1174.93798  258.00000  23.24664             14.37536
1004.89076  111.00840   119.00000  14.24374             10.86276
1005.85890  441.32515   163.00000  15.33829             13.67377
1004.93130  381.75573   131.00000  15.24464             10.97282
1011.60563  585.60563   284.00000  24.82690             14.83621
1008.81197  1590.81197  234.00000  20.27323             15.01343
1007.08494  1783.33977  259.00000  25.60226             12.92382
1007.07547  499.40881   159.00000  15.21747             13.32433
1011.06486  284.47027   185.00000  16.88837             13.97290
1015.37321  155.66507   209.00000  20.64080             12.92529
1014.40088  266.55507   227.00000  21.37718             13.59741
1011.06911  361.23577   246.00000  26.19241             12.51535
1010.41538  598.16154   130.00000  15.64960             10.62527
1016.20325  1390.02846  246.00000  23.82559             13.40522
1010.86066  1523.15574  122.00000  13.92860             11.21695
1015.17778  700.37222   180.00000  16.96983             13.58644
1015.87283  311.21965   173.00000  15.92495             13.85228
1016.47297  1424.62838  148.00000  16.67147             11.42082
1022.68821  241.21673   263.00000  26.53171             12.83105
1019.98696  1657.45217  230.00000  19.34119             15.38494
1020.06897  88.52299    174.00000  16.13658             13.73258
1020.31020  1264.06939  245.00000  18.60246             17.01923
1017.52083  1579.85417  96.00000   12.19712             10.27373
1020.25874  189.17483   143.00000  15.15554             12.03816
1020.32000  653.06286   175.00000  21.40149             10.43403
1022.78646  388.28646   192.00000  17.40509             14.21338
1024.78246  812.10877   285.00000  21.31674             17.20071
1023.47253  1307.77473  182.00000  17.06796             13.66930
1024.27957  410.21505   186.00000  16.29973             14.58919
1020.72222  1234.33333  54.00000   9.95595              6.89175
1024.25170  1565.70068  147.00000  17.56318             10.85460
1027.64236  513.98264   288.00000  20.23820             18.40977
1023.62009  1473.65502  229.00000  24.83179             12.73815
1026.70157  1641.48691  191.00000  20.17304             12.27853
1026.77358  1816.97170  212.00000  19.16107             14.16418
1030.84082  612.95918   245.00000  26.38625             12.02256
1027.78431  36.80392    153.00000  15.41711             12.88305
1028.89837  859.69919   246.00000  20.14870             15.64735
1030.51724  1351.28736  174.00000  23.11495             9.91252
1026.16038  1487.94340  106.00000  12.76891             10.70892
1030.24648  179.50704   142.00000  17.39524             10.41310
1024.00000  449.00000   23.00000   5.89768              4.86335
1024.33333  493.36364   33.00000   7.00393              5.98154
1026.98230  1370.61062  113.00000  13.26027             11.23206
1031.48148  260.57870   216.00000  17.05706             16.17692
1025.97674  875.27907   43.00000   8.54767              6.37646
1033.84694  292.84014   294.00000  23.15733             16.62681
1031.74194  545.29032   124.00000  14.60956             10.89027
1032.59111  1422.24000  225.00000  21.34198             13.43490
1033.02051  726.68205   195.00000  16.53873             15.04472
1031.50000  422.45385   130.00000  16.15648             10.25124
1032.65625  1222.87500  64.00000   9.47490              8.66520
1037.09790  670.48951   143.00000  15.80660             11.54543
1036.16129  600.95161   124.00000  14.80132             10.85161
1043.10000  1201.75161  310.00000  24.33286             16.31634
1040.80473  1366.50296  169.00000  21.51078             10.29455
1037.71795  1375.05128  117.00000  14.25216             10.71808
1037.94536  1491.86339  183.00000  16.77575             14.02646
1039.38696  480.53043   230.00000  24.68333             12.07409
1040.43882  556.77637   237.00000  18.42186             16.80400
1042.83858  129.01181   254.00000  22.73579             14.61593
1040.03429  643.70857   175.00000  15.94400             14.14213
1041.94203  307.42029   207.00000  20.87256             12.73237
1043.33108  579.98311   296.00000  29.00815             13.06371
1044.26316  1357.09211  152.00000  20.36373             9.60653
1041.96757  759.80541   185.00000  16.74075             14.10502
1042.40500  776.14500   200.00000  17.74246             14.46113
1046.62069  850.92337   261.00000  24.74225             13.48818
1042.12048  1540.72289  166.00000  16.25844             13.05539
1045.79476  272.66812   229.00000  20.91819             13.99539
1046.59135  796.51442   208.00000  17.71788             14.96462
1044.47826  1719.63768  207.00000  20.10845             13.19406
1048.28021  398.97172   389.00000  31.09121             16.63661
1049.25431  1402.25862  232.00000  20.15840             14.99022
1047.65132  538.88816   152.00000  14.37666             13.51054
1047.91057  603.28455   123.00000  13.78716             11.43819
1051.98540  1298.56204  137.00000  17.16367             10.40636
1053.60360  47.72523    222.00000  17.26916             16.44757
1054.75314  1559.53975  239.00000  19.57957             15.64324
1055.93289  430.62752   298.00000  21.54854             17.82840
1059.25279  882.44610   269.00000  22.29723             15.49514
1056.85581  1624.20930  215.00000  20.27681             14.07302
1057.40805  1763.09770  174.00000  17.21131             12.98585
1057.03828  1780.11005  209.00000  17.20931             15.56236
1062.57143  233.91111   315.00000  25.21569             16.52586
1059.29703  1253.30198  202.00000  18.87215             13.75389
1059.35938  1646.15625  192.00000  24.57158             10.45771
1060.45342  154.29814   161.00000  15.57563             13.22683
1059.55340  814.81553   206.00000  18.88833             14.03603
1063.60181  596.76923   221.00000  20.94267             13.47521
1060.67480  289.03252   123.00000  13.22369             11.88880
1064.94771  520.54575   306.00000  23.90248             16.91867
1064.54884  1431.64186  215.00000  22.59751             13.19291
1063.32099  1481.88272  162.00000  16.50897             12.63563
1065.13942  209.52404   208.00000  20.33377             13.08501
1063.85946  1522.04865  185.00000  18.46141             12.89336
1069.55224  1342.34328  268.00000  23.36514             14.89939
1066.90411  402.30137   146.00000  14.86740             12.55524
1067.95263  1181.15263  190.00000  17.50585             13.81379
1066.44218  1457.98639  147.00000  14.74688             12.71871
1069.44103  328.64103   195.00000  19.90408             12.62506
1069.72083  349.57500   240.00000  19.03441             16.07548
1070.98885  1293.36431  269.00000  22.72489             15.57224
1067.66667  1441.31852  135.00000  14.70226             11.68213
1067.91667  661.33333   84.00000   12.56535             8.66489
1069.72034  1730.15678  236.00000  22.95444             13.58681
1069.73171  733.00610   164.00000  17.00306             12.33623
1068.87000  1565.15000  100.00000  12.74928             10.05711
1067.45763  1624.00000  59.00000   9.71009              7.87987
1072.23200  710.24400   250.00000  23.17627             14.45734
1073.77143  464.65714   140.00000  16.82618             10.71674
1072.04046  821.76301   173.00000  19.21781             11.63085
1074.76096  562.12351   251.00000  22.28321             14.41411
1074.87413  652.38462   143.00000  16.92075             10.83207
1076.44149  1538.30851  188.00000  21.09325             11.42074
1078.02055  1508.90411  146.00000  20.48134             9.17288
1082.81206  305.48582   282.00000  24.34278             15.32147
1080.83884  579.86777   242.00000  21.42285             14.60677
1081.53672  165.13559   177.00000  18.78652             12.06547
1079.83432  1673.72189  169.00000  16.35402             13.15653
1081.60355  274.20118   169.00000  16.44163             13.10591
1085.48598  622.14486   214.00000  22.79728             12.10164
1080.20000  531.00000   30.00000   8.06145              4.78605
1082.56028  1562.50355  141.00000  17.13373             10.57199
1086.58794  220.56784   199.00000  16.44971             15.39443
1088.02062  1579.05155  194.00000  19.62144             12.63367
1084.85859  263.28283   99.00000   12.35537             10.26160
1090.25088  1473.35336  283.00000  28.13883             14.13714
1088.26923  117.98352   182.00000  16.63181             13.98347
1088.16993  240.72549   153.00000  14.72292             13.32252
1088.96203  1731.90506  158.00000  15.00338             13.50282
1090.37333  424.04889   225.00000  19.75993             14.66505
1089.95437  462.80228   263.00000  24.40280             14.23474
1092.71359  846.03398   206.00000  17.71625             14.86207
1089.68667  1616.82667  150.00000  14.98199             12.85594
1093.52153  543.55981   209.00000  17.18318             15.54078
1091.64062  660.34375   64.00000   9.36323              8.92317
1094.15942  705.22101   276.00000  26.30950             13.59930
1099.65616  1358.27221  349.00000  31.52528             14.83690
1093.04082  1523.63265  147.00000  15.75072             12.07070
1095.02143  1635.32857  140.00000  18.22331             10.06290
1096.11667  177.24167   120.00000  14.04952             10.94191
1096.56915  265.95745   188.00000  19.74475             12.17938
1097.90909  615.49432   176.00000  17.25698             13.06175
1098.07729  1437.07729  207.00000  21.74459             12.24649
1098.74033  1419.40884  181.00000  16.47068             14.02650
1098.68639  342.41420   169.00000  16.60175             12.98217
1102.97826  1592.50000  230.00000  21.16317             14.45141
1104.09302  1790.55814  258.00000  24.20951             13.69554
1100.60769  297.34615   130.00000  13.34647             12.53732
1101.92488  518.99061   213.00000  18.79925             14.55953
1100.90062  1626.27329  161.00000  17.20496             12.11858
1103.39899  167.48485   198.00000  18.09936             13.99869
1103.35135  374.45045   222.00000  19.72588             14.46373
1103.93893  229.45038   131.00000  15.71287             10.61465
1104.73246  639.95175   228.00000  23.48953             12.52813
1112.03226  1324.35081  248.00000  25.77376             12.67402
1111.65339  1502.75697  251.00000  25.64422             13.54588
1110.57530  470.91867   332.00000  24.63833             17.95536
1108.66146  349.99479   192.00000  19.74927             12.79188
1108.70423  1811.65728  213.00000  20.60628             13.93104
1109.56579  453.01754   228.00000  19.05543             15.30883
1111.19481  1401.02597  308.00000  25.47929             15.66055
1110.94872  385.17436   195.00000  23.46554             10.84241
1110.84615  325.28022   182.00000  19.32344             12.06950
1116.45353  876.94052   269.00000  27.02561             13.02475
1116.80870  1488.48261  230.00000  21.98242             13.63022
1115.18817  435.79570   186.00000  16.82196             14.41930
1114.90210  1336.89510  143.00000  13.80413             13.29169
1117.49051  523.91456   316.00000  24.37062             16.61112
1116.82222  294.61333   225.00000  19.38065             14.91961
1118.08108  711.59459   185.00000  16.89676             13.95988
1119.37500  780.11859   312.00000  27.63586             15.91450
1118.73820  1431.26180  233.00000  21.01010             14.39078
1117.53896  154.47403   154.00000  16.14056             12.38004
1119.75824  425.08791   91.00000   11.99852             9.86217
1126.78743  1567.27844  334.00000  35.25608             14.48776
1122.62609  145.53043   115.00000  13.42373             11.32848
1122.43210  214.12346   162.00000  14.79877             14.13819
1126.47256  574.82317   328.00000  28.01310             15.68665
1123.73026  241.44737   152.00000  17.93460             10.85718
1132.55398  823.90625   352.00000  30.14789             16.73209
1129.12500  1625.51500  200.00000  18.33614             14.01472
1127.68182  1637.18182  110.00000  13.11598             10.82441
1130.17269  18.36546    249.00000  20.89500             15.18553
1128.64384  198.47260   146.00000  16.33640             11.47055
1134.63687  608.97207   179.00000  23.26905             9.85617
1132.05314  624.22705   207.00000  17.69390             15.15740
1130.94760  1464.51528  229.00000  21.62416             13.60703
1133.00413  1521.23554  242.00000  19.97044             15.67952
1130.37838  358.69595   148.00000  16.70959             11.39669
1129.32468  542.94805   77.00000   11.80241             8.35957
1131.19380  338.72093   129.00000  15.79740             10.43577
1132.13178  419.05426   129.00000  14.85814             11.12281
1134.12057  118.41135   141.00000  14.73852             12.35322
1132.56818  184.93182   88.00000   12.23607             9.31971
1137.89113  259.26210   248.00000  19.98641             15.89572
1135.96040  482.23267   202.00000  18.73524             13.87998
1138.28963  500.97256   328.00000  22.61614             18.64260
1134.26943  237.83420   193.00000  19.70985             12.65784
1134.80374  407.48598   107.00000  13.25949             10.31722
1138.00571  1605.98857  175.00000  19.95813             11.26621
1133.40741  1394.92593  27.00000   6.42150              5.26541
1137.75182  635.32117   137.00000  16.07872             10.88122
1138.81679  1358.44275  131.00000  15.60058             10.73349
1139.29801  558.42384   151.00000  16.12026             11.93363
1146.68142  365.77876   226.00000  24.45642             12.01653
1141.63200  342.56800   125.00000  13.70499             11.67204
1148.47257  412.16034   237.00000  20.42732             15.17290
1149.25728  1547.52913  206.00000  17.27025             15.43310
1148.64740  459.84393   173.00000  17.30590             12.80895
1154.12868  659.85294   272.00000  26.19115             13.39671
1153.20455  1323.15152  264.00000  22.55059             15.03161
1155.90311  1465.51211  289.00000  25.55609             14.59701
1150.83819  1778.28479  309.00000  28.53676             14.08578
1151.15000  1342.92500  160.00000  17.79618             11.93507
1153.18981  1831.43519  216.00000  18.42950             15.45623
1153.00823  719.53498   243.00000  19.00742             16.36912
1158.70035  1430.52962  287.00000  25.37697             14.67349
1152.88966  603.96552   145.00000  15.15949             12.22505
1156.12000  226.26857   175.00000  17.78362             12.65559
1157.30469  557.00000   256.00000  22.39928             15.32684
1155.76617  1516.55721  201.00000  17.32699             14.83851
1157.49194  626.62097   248.00000  19.02051             16.80777
1157.08152  1500.04891  184.00000  21.01776             11.86245
1156.82955  186.97159   176.00000  18.44383             12.16486
1157.95735  789.75355   211.00000  21.08835             12.94853
1157.66387  453.89076   119.00000  16.01760             9.58951
1159.28571  1583.05820  189.00000  17.11404             14.08414
1155.50000  538.91667   24.00000   5.77350              5.28099
1160.51079  1357.76978  139.00000  16.35007             10.88320
1164.51240  1307.15289  242.00000  19.75051             15.74551
1165.21898  1409.76642  274.00000  25.09933             14.26254
1164.51737  1567.18533  259.00000  20.28889             16.74034
1165.10050  147.21106   199.00000  21.85928             11.65721
1163.42969  406.17188   128.00000  14.81015             11.08412
1165.34000  598.19333   150.00000  16.35897             11.80352
1163.94470  745.45622   217.00000  19.18167             14.53939
1165.13274  82.02655    226.00000  19.01112             15.24029
1163.65823  121.67089   79.00000   11.87091             8.57939
1163.84615  319.46923   130.00000  14.41754             11.48856
1166.33071  328.55118   127.00000  16.67610             10.53032
1166.53488  339.15698   172.00000  17.83722             12.51330
1166.73649  578.43243   148.00000  15.57522             12.37745
1166.64035  291.71930   114.00000  13.46351             10.81747
1169.24901  489.33992   253.00000  21.19947             15.42374
1169.97087  521.32039   206.00000  20.83558             12.74504
1166.40625  1024.60938  64.00000   10.49960             7.74122
1171.98010  242.39801   201.00000  18.96247             13.66817
1172.09155  360.22535   142.00000  15.74211             11.51729
1176.35223  820.51417   247.00000  27.91439             11.45865
1172.17073  351.01220   82.00000   12.09834             8.90549
1175.33333  202.26126   111.00000  14.35921             9.91254
1176.57192  924.64041   292.00000  22.62971             16.56344
1173.37037  1619.79012  81.00000   11.16481             9.44134
1178.39683  1832.52910  189.00000  22.57292             10.68026
1185.06463  591.10544   294.00000  26.22011             14.56638
1184.07170  653.09057   265.00000  23.97359             14.31179
1180.01471  153.45588   136.00000  16.38715             10.60036
1185.85202  391.35874   446.00000  35.38995             17.32500
1184.33121  553.62739   314.00000  22.82856             17.64118
1183.25229  1436.78440  218.00000  19.73784             14.13417
1182.10067  229.14765   149.00000  14.37310             13.31260
1183.63068  1614.60227  176.00000  17.08385             13.53351
1180.87692  193.07692   65.00000   10.23513             8.18331
1185.75587  275.81690   213.00000  19.74247             13.77053
1183.95402  413.58621   174.00000  18.04146             12.31050
1187.39732  115.16518   224.00000  19.50627             14.85069
1185.08621  436.65517   174.00000  17.68653             12.56586
1190.39506  1523.20988  243.00000  21.51387             14.41282
1186.27511  1586.30131  229.00000  21.79147             13.45562
1187.85470  486.12821   117.00000  14.10213             10.58540
1184.05263  904.36842   19.00000   6.13977              4.16538
1189.04386  211.08772   114.00000  14.27056             10.30691
1188.87970  1658.09774  266.00000  26.24724             12.99243
1191.10769  28.51282    195.00000  16.86031             14.77605
1191.05195  683.73377   154.00000  15.63240             12.56500
1191.14141  764.07071   198.00000  18.52246             13.81967
1186.97561  860.65854   41.00000   9.39726              5.58411
1193.93810  342.74286   210.00000  19.89852             13.77216
1193.36975  1048.72689  238.00000  21.21580             14.47645
1192.04418  1735.47390  249.00000  28.54618             11.51904
1193.64912  1319.11111  171.00000  17.12299             12.75333
1193.72189  1445.57396  169.00000  20.93062             10.99077
1190.18750  830.68750   16.00000   5.14945              3.91895
1195.67442  564.91860   172.00000  19.41803             11.43326
1195.63033  266.36493   211.00000  23.55328             11.65770
1195.75912  1538.29927  137.00000  15.32841             11.42636
1195.94118  1679.55882  170.00000  18.09695             12.01426
1199.38868  240.09811   265.00000  19.19723             17.61745
1199.07097  1286.90323  310.00000  26.83536             15.32258
1197.04839  1381.20968  124.00000  14.06943             11.33738
1201.81226  516.54406   261.00000  20.40991             16.42228
1198.38393  218.69643   112.00000  14.28815             10.12148
1200.41912  431.69853   136.00000  13.79877             12.59925
1202.66176  174.75490   204.00000  19.18140             13.71516
1205.67755  305.91020   245.00000  22.90333             13.80255
1204.53368  418.67358   193.00000  16.83763             14.63243
1202.70946  1729.63514  148.00000  16.20738             11.67590
1202.55085  1763.66102  118.00000  14.82949             10.21644
1207.39738  614.91266   229.00000  21.88914             13.41961
1209.28063  1487.11462  253.00000  22.22393             15.26557
1207.47692  1067.22051  195.00000  17.53011             14.18671
1207.97727  1401.30303  132.00000  16.30482             10.34890
1209.90393  22.89956    229.00000  19.15268             15.31821
1209.03902  825.37561   205.00000  19.17511             13.81354
1210.02395  103.87425   167.00000  16.18501             13.19086
1210.23497  1514.71038  183.00000  17.18828             13.62571
1209.77273  1533.05114  176.00000  15.95557             14.19047
1205.61111  576.27778   18.00000   5.69339              3.93530
1214.17949  554.90256   195.00000  19.63153             12.91501
1214.84910  259.93350   391.00000  26.24517             19.09846
1212.78365  328.39904   208.00000  20.32835             13.17048
1214.41827  398.21154   208.00000  18.55061             14.37326
1213.73980  475.20408   196.00000  19.56131             12.91152
1216.37799  191.40191   209.00000  18.15507             14.77070
1214.05926  690.47407   135.00000  14.42883             11.95831
1221.49756  483.34634   205.00000  22.06373             12.46397
1218.77241  818.10345   145.00000  14.98887             12.38865
1220.76923  1477.85897  156.00000  17.63898             11.37265
1220.49174  596.68182   242.00000  21.25018             14.62024
1222.06897  1002.75479  261.00000  21.21986             15.68626
1219.22414  1578.87931  174.00000  16.93756             13.20012
1221.03306  530.20248   242.00000  20.67576             14.99106
1222.75610  286.57724   123.00000  14.88483             10.53663
1227.74308  1394.03953  253.00000  25.32887             12.78183
1224.65234  1802.33984  256.00000  24.29005             13.65052
1224.69822  1274.13018  169.00000  15.59706             13.92872
1225.73206  1882.63158  209.00000  19.92668             13.40389
1226.72500  116.39000   200.00000  16.76316             15.22869
1226.35772  219.49593   123.00000  14.44527             10.99232
1226.71569  339.85294   102.00000  14.34772             9.43261
1234.54717  330.83019   212.00000  19.73799             13.81378
1235.83398  496.17375   259.00000  23.21040             14.38675
1237.05634  551.36620   213.00000  19.60200             13.96330
1234.77586  88.05172    116.00000  12.71531             11.64823
1238.59434  371.58491   212.00000  18.14429             14.91734
1238.20588  409.36029   136.00000  13.57615             12.82887
1240.00000  101.35897   117.00000  13.21910             11.33245
1241.48259  214.50746   201.00000  17.75068             14.44193
1240.49756  272.36585   205.00000  18.66717             14.28934
1243.80088  452.00000   226.00000  23.96046             12.35128
1245.70383  602.77700   287.00000  25.14818             15.60009
1243.14667  1904.86667  225.00000  21.02537             13.86565
1243.20106  154.17989   189.00000  18.70853             12.93292
1245.06780  681.35028   177.00000  18.33399             12.58813
1245.97183  169.89437   142.00000  14.80883             12.28306
1247.03185  991.10191   157.00000  15.27657             13.10508
1250.51667  292.02917   240.00000  24.93634             12.78909
1247.45509  1503.72455  167.00000  16.01524             13.32648
1251.28458  1265.09881  253.00000  22.07583             15.05078
1251.08092  504.80347   173.00000  19.90277             11.11219
1253.74586  409.45856   181.00000  16.68593             14.00117
1255.41379  547.19704   203.00000  18.14527             14.75979
1254.71681  109.77876   113.00000  12.90094             11.19396
1258.17333  384.67111   225.00000  21.10215             13.66483
1258.87283  273.95954   173.00000  16.20968             13.63062
1260.53360  327.90514   253.00000  20.77203             15.75294
1254.32143  483.42857   28.00000   7.08643              4.96177
1257.78049  653.53659   164.00000  16.39819             12.79728
1263.26020  165.91327   196.00000  17.89137             14.00296
1261.88732  443.09859   213.00000  18.52916             14.70753
1262.51799  349.43885   139.00000  15.33267             11.60791
1261.40800  400.75200   125.00000  15.65657             10.28515
1265.49083  149.34862   218.00000  20.88076             13.57116
1269.23392  1088.21637  342.00000  26.53276             18.08562
1265.24731  537.07527   186.00000  21.78680             11.08168
1265.35099  1259.39073  151.00000  18.24742             10.78608
1272.12717  81.84971    173.00000  17.33791             12.74752
1270.37500  232.48026   152.00000  15.80980             12.27340
1270.16959  487.62573   171.00000  20.87020             10.89674
1270.56716  1275.68657  134.00000  15.59212             11.06642
1275.32474  247.07216   194.00000  19.02490             13.15703
1275.65294  210.11765   170.00000  17.67354             12.29983
1276.06383  1534.28191  188.00000  17.82068             13.45684
1277.87006  97.01695    177.00000  15.65593             14.54221
1276.15888  438.77570   107.00000  12.65338             10.80114
1278.31111  1287.63889  180.00000  15.83702             14.64386
1278.23810  194.09524   147.00000  18.26761             10.26142
1282.63158  355.61654   266.00000  21.67404             15.93022
1283.20588  340.55882   136.00000  14.90608             11.67773
1279.19048  698.07143   42.00000   7.48129              7.10041
1285.13408  319.54749   179.00000  15.83911             14.40806
1284.14815  446.77037   135.00000  16.48001             10.62978
1289.00690  17.02759    145.00000  13.91187             13.29942
1288.87500  266.46324   136.00000  15.01631             11.58107
1292.26367  716.30225   311.00000  21.73618             19.07777
1290.69274  127.03911   179.00000  17.70797             13.13697
1290.73620  514.85276   163.00000  16.53067             12.81968
1291.53219  147.26609   233.00000  17.92297             16.66341
1292.97872  401.90071   141.00000  17.58938             10.32290
1295.29675  1126.69512  246.00000  19.78343             16.49624
1293.53175  173.74603   126.00000  13.35978             12.00892
1297.97714  598.85143   175.00000  19.31870             11.71095
1295.34146  159.02439   41.00000   8.10541              6.48736
1300.50769  490.16923   195.00000  18.43220             13.51922
1299.78866  982.80928   194.00000  17.52024             14.15788
1301.85052  280.12887   194.00000  16.74005             14.79667
1304.38938  440.84513   226.00000  18.56045             15.65872
1304.34191  1556.18750  272.00000  21.52671             16.13700
1304.87500  683.99583   240.00000  23.18127             14.85189
1309.00000  748.89623   212.00000  20.85336             13.64727
1305.30909  262.19091   110.00000  13.73255             10.29014
1307.98378  515.85946   185.00000  16.76274             14.17835
1309.42211  177.30653   199.00000  17.08698             14.90076
1310.88000  69.44000    75.00000   11.70982             8.30936
1311.50000  249.60309   194.00000  21.22385             11.93526
1312.02326  571.00930   215.00000  20.32645             13.92863
1314.58944  335.00587   341.00000  28.27651             16.41380
1317.21918  463.65753   146.00000  14.74618             12.66484
1318.51795  495.06154   195.00000  16.32810             15.29921
1318.41016  694.89062   256.00000  23.08375             15.04394
1318.55882  277.66176   136.00000  14.85075             11.71897
1323.15966  129.09244   238.00000  21.12012             14.37730
1319.88060  151.23881   134.00000  14.98869             11.41307
1323.66190  242.25714   210.00000  17.64234             15.57513
1324.34586  229.51128   133.00000  14.36428             11.79364
1324.94805  478.94805   154.00000  15.11107             12.97091
1328.04972  439.34807   181.00000  19.54796             11.88104
1323.78862  568.94309   123.00000  13.80415             11.39515
1329.01961  976.99020   204.00000  21.85561             12.07050
1323.97727  1279.72727  44.00000   8.27986              6.80041
1330.87451  826.36078   255.00000  20.76674             15.97572
1331.48175  200.49635   137.00000  14.09625             12.43985
1334.11312  370.85973   221.00000  19.46765             14.60932
1333.14583  164.63889   144.00000  14.66729             12.60950
1329.59091  412.77273   22.00000   6.74148              4.06238
1337.66507  813.13876   209.00000  20.23399             13.33142
1335.17687  603.44218   147.00000  15.39451             12.22157
1334.57432  775.90541   148.00000  16.19772             11.68955
1343.77477  47.98649    222.00000  20.78472             13.65636
1340.58140  514.60465   43.00000   8.64293              6.33887
1348.51389  590.83333   216.00000  18.86227             14.57766
1346.73554  316.03306   121.00000  13.59223             11.61500
1352.99190  386.52227   247.00000  23.34940             13.59487
1350.11927  75.65138    218.00000  22.60391             12.36417
1351.35443  141.56962   158.00000  18.14613             11.31920
1349.16556  239.57616   151.00000  14.36134             13.41055
1354.80252  433.31933   238.00000  26.10997             11.96270
1351.33708  528.59551   89.00000   12.62084             9.06704
1352.87586  948.48276   145.00000  14.23044             13.02207
1352.49153  639.03390   59.00000   10.81052             6.98143
1357.51969  814.40945   254.00000  18.86547             17.31016
1357.65285  195.75648   193.00000  21.82175             11.60763
1355.49000  270.08000   100.00000  12.52897             10.20789
1356.51829  303.55488   164.00000  15.30610             13.71528
1363.79574  1129.99149  235.00000  22.45334             13.42069
1360.54264  280.58140   129.00000  13.19967             12.49457
1358.47525  319.24752   101.00000  13.28777             9.72847
1360.09790  561.70629   143.00000  14.23455             12.87424
1359.56842  528.55789   190.00000  24.84049             9.99371
1364.76866  944.76119   134.00000  15.52127             11.20004
1372.10268  368.90179   224.00000  27.86031             10.58882
1367.49565  79.98261    115.00000  14.15325             10.35678
1369.51020  228.68027   147.00000  15.28616             12.32616
1375.23364  396.50000   214.00000  20.18352             13.91882
1374.87342  33.07595    158.00000  17.14327             11.76296
1375.18396  458.85849   212.00000  17.24941             15.80815
1377.30986  774.56808   213.00000  19.08364             14.50166
1382.95980  121.07538   199.00000  24.05687             10.65326
1379.24419  182.12791   172.00000  19.09694             11.60785
1381.20000  569.48205   195.00000  16.32435             15.28695
1380.86923  212.79231   130.00000  15.00828             11.32472
1383.71560  12.46789    218.00000  17.72951             15.77321
1383.20000  469.98000   150.00000  15.53425             12.37042
1382.33582  507.26866   134.00000  17.73686             9.62256
1384.81818  436.42727   110.00000  15.45343             9.14905
1386.57576  761.26061   165.00000  15.36582             13.85371
1386.42466  1022.71918  146.00000  17.80139             10.74508
1389.29675  1058.31301  246.00000  20.52229             15.47268
1389.00000  610.55357   168.00000  15.29578             14.26594
1390.30247  317.62963   162.00000  15.57059             13.39696
1390.20497  444.69565   161.00000  16.11073             12.99993
1389.06286  625.40000   175.00000  16.18141             14.31229
1388.93684  1089.36842  95.00000   11.98183             10.16341
1391.06173  383.69136   81.00000   12.17746             8.63246
1394.37126  641.97605   167.00000  15.67489             13.69775
1397.74271  257.81432   377.00000  28.93249             16.69210
1397.61026  704.72308   195.00000  19.28893             13.09816
1396.90756  1033.39496  238.00000  20.22496             15.63499
1399.03636  179.92727   275.00000  22.16540             15.98522
1399.25970  294.99403   335.00000  27.72637             15.68444
1399.86207  656.14368   174.00000  15.04379             14.79645
1399.62983  728.38674   181.00000  15.72462             14.78227
1400.40435  331.20870   230.00000  22.25547             13.23856
1402.97235  558.03226   217.00000  20.54662             13.57421
1405.66176  526.46569   204.00000  19.09619             13.71116
1406.62617  157.07477   214.00000  17.48182             15.60088
1410.63964  683.00901   222.00000  19.19898             14.89620
1409.33051  1072.92373  236.00000  21.10459             14.33058
1409.36054  466.74150   147.00000  15.14901             12.38654
1412.50676  634.20270   148.00000  16.00917             11.83763
1412.77857  419.87857   140.00000  17.24448             10.37064
1418.01765  368.22941   170.00000  17.45454             12.44651
1420.92958  507.01408   213.00000  18.24606             14.98399
1420.25269  192.30108   186.00000  18.71389             12.81490
1419.04444  779.42222   45.00000   8.28935              6.89302
1425.18224  65.87383    214.00000  18.42026             15.07928
1423.46199  211.39766   171.00000  16.49759             13.31452
1424.78155  305.52427   206.00000  17.17131             15.31115
1420.31429  381.82857   35.00000   7.44650              5.94130
1430.35814  420.26512   215.00000  19.36698             14.38132
1431.60455  262.93182   220.00000  19.82832             14.30726
1430.59223  328.63107   103.00000  14.05465             9.40344
1431.89266  343.38418   177.00000  17.02889             13.36121
1432.17021  596.84397   141.00000  17.61574             10.30506
1430.16000  384.38000   100.00000  14.62600             8.69023
1430.91304  321.08696   46.00000   8.14298              7.23923
1436.02500  112.40833   240.00000  20.05946             15.31035
1437.28649  481.04865   185.00000  16.01217             14.83859
1434.30000  1046.63333  30.00000   6.59802              5.82595
1442.22835  148.86220   254.00000  20.21790             16.52641
1438.75862  164.41379   145.00000  15.66163             11.86971
1440.91848  456.44022   184.00000  16.04432             14.62216
1443.29310  309.12644   174.00000  18.02926             12.45979
1442.03540  438.00000   113.00000  12.53451             11.53827
1444.20896  369.72388   134.00000  15.02439             11.50432
1450.32487  534.99492   197.00000  21.22129             11.83766
1451.85333  596.25333   225.00000  19.65116             14.66966
1448.28846  385.65385   52.00000   9.59378              6.91287
1451.48837  301.68992   129.00000  15.18254             10.90819
1452.47191  324.32584   178.00000  18.06978             12.57413
1455.32411  426.91700   253.00000  21.11676             15.34965
1459.78667  401.41333   225.00000  21.91287             13.15042
1459.71591  71.30682    264.00000  20.20583             16.80061
1458.05785  124.54545   121.00000  13.85869             11.11393
1460.51079  194.61151   139.00000  14.29301             12.48878
1467.53097  360.34513   226.00000  20.91789             13.89431
1470.61472  280.94372   231.00000  21.53529             13.82467
1471.03587  205.78924   223.00000  17.56264             16.22673
1467.45614  312.05263   57.00000   9.51881              7.60779
1471.25926  511.62963   135.00000  13.53844             12.77453
1472.02500  443.36875   160.00000  16.04048             12.90029
1470.53571  337.62500   56.00000   9.36643              7.59696
1476.48805  260.80205   293.00000  23.23518             16.15842
1482.33190  575.19828   232.00000  18.78425             15.77432
1482.83628  327.42035   226.00000  20.97416             13.76465
1481.74380  454.77686   121.00000  13.44555             11.52712
1485.91724  378.75862   145.00000  17.31588             10.84695
1491.91667  25.18056    216.00000  18.17879             15.19048
1491.15484  344.27097   155.00000  16.97898             11.65586
1494.22642  471.54717   159.00000  22.54115             9.45278
1496.10056  396.22346   179.00000  17.40677             13.19382
1495.91329  513.31792   173.00000  16.04738             13.90570
1499.52198  484.18132   182.00000  23.78535             11.08252
1499.67797  526.41243   177.00000  18.64483             12.14557
1510.34063  67.61250    320.00000  21.75547             19.04444
1506.68837  346.35814   215.00000  17.28237             16.05578
1506.39831  434.47458   118.00000  15.88247             10.02599
1509.53555  367.97156   211.00000  17.57708             15.50413
1509.86250  277.50417   240.00000  20.04584             15.45515
1509.00000  423.24638   138.00000  13.79976             12.97996
1518.60456  32.03422    263.00000  18.69331             17.97953
1517.69886  544.69318   176.00000  17.94861             12.69499
1521.39216  326.46569   204.00000  19.35176             13.53175
1523.70833  113.68229   192.00000  16.95554             14.62134
1523.90968  1772.43226  155.00000  16.50432             12.09840
1525.96939  282.78912   294.00000  24.55548             15.51308
1526.89352  88.64352    216.00000  18.52312             14.88766
1530.39437  1731.38028  142.00000  17.68566             10.76999
1533.42424  168.83550   231.00000  26.33267             11.42664
1537.03433  530.77253   233.00000  26.08599             11.70509
1540.26490  35.34437    151.00000  14.72015             13.12014
1543.07391  433.06957   230.00000  22.55399             13.16205
1545.12865  1696.02339  171.00000  17.35253             12.66006
1547.24623  379.75879   199.00000  19.48087             13.13333
1551.93939  405.03535   198.00000  17.03843             14.83502
1553.23950  347.28571   238.00000  20.20923             15.04006
1560.18414  485.12465   353.00000  30.39441             15.05385
1559.16092  102.34483   261.00000  22.17547             15.24364
1559.90000  130.17308   260.00000  19.28426             17.32498
1559.58639  1668.41885  191.00000  17.40065             14.19785
1560.21212  314.60606   99.00000   12.09270             10.75240
1579.42818  1629.43370  362.00000  43.18808             11.79411
1579.63504  181.89781   274.00000  21.48295             16.61792
1581.52593  411.21852   270.00000  26.99854             12.92459
1590.23729  359.04520   177.00000  18.27275             12.39638
1590.99438  205.63483   178.00000  17.97086             12.61147
1600.81684  1582.88000  475.00000  46.62257             13.47756
1617.92677  1537.05721  437.00000  45.76260             12.62154
1630.15753  1483.43151  438.00000  40.20599             14.26851
1638.92377  1434.87444  223.00000  21.60221             13.51611
1656.84286  1209.21429  210.00000  21.04102             12.87718