# Filename: Nuclei_416_bidi_60x_014.npz
# Voxel size (nm): (108, 108)
# Area quantity: voxels
# Num nuclei detected: 1292
Y           X           AREA       MAJOR_AXIS_LENGTH    MINOR_AXIS_LENGTH
57.44928    746.31884   207.00000  17.73893             14.95406
72.34848    712.37879   264.00000  22.13737             15.22760
75.02807    734.07368   285.00000  22.07315             16.52906
101.97354   1064.14286  189.00000  18.93407             12.85899
103.47126   731.71264   174.00000  17.65929             12.74187
110.15068   1441.75342  146.00000  16.77599             11.53304
125.96648   1078.06704  179.00000  19.27265             12.42656
134.42767   1106.71698  159.00000  17.07177             12.04998
134.55172   1316.54023  87.00000   11.52966             9.76321
140.67760   682.60109   183.00000  18.72512             12.76446
146.52542   711.75424   118.00000  13.23071             11.78502
150.39264   797.55215   163.00000  16.73828             12.44944
157.09167   705.78333   120.00000  12.90211             11.91008
170.26190   116.69841   126.00000  14.08225             11.57560
179.49606   1038.39764  254.00000  20.93773             15.70379
191.85882   1281.10588  170.00000  16.46034             13.16658
207.17293   786.20301   133.00000  13.74600             12.38905
222.70062   726.25617   324.00000  26.43754             16.04022
223.76555   1136.29665  209.00000  19.02905             14.00240
223.40000   1568.49474  95.00000   12.35504             9.88529
230.28682   693.73643   258.00000  21.23243             15.70947
232.71515   1185.35152  165.00000  16.24791             13.02969
237.08108   1208.43694  222.00000  23.37125             12.15048
240.57895   1145.77895  190.00000  18.08192             13.39420
243.56000   1223.27556  225.00000  20.48488             14.03818
240.23308   1236.01504  133.00000  13.61406             12.48197
246.18090   1559.78392  199.00000  18.47008             14.49233
248.06584   784.46502   243.00000  21.56677             15.20950
249.22936   1035.58257  218.00000  24.56083             12.19559
255.85135   1519.01351  222.00000  21.17731             13.47782
257.20536   1377.03571  224.00000  21.18758             13.63682
258.25641   802.77436   195.00000  19.52660             12.72769
260.33488   1316.04186  215.00000  21.77126             12.62350
259.96135   1495.18357  207.00000  19.51978             13.56678
262.51500   1542.31000  200.00000  20.69102             12.44912
263.26804   1136.59278  194.00000  18.28282             13.58583
265.50000   1054.55238  210.00000  20.06965             13.39167
267.98291   1356.22222  117.00000  14.04981             11.08612
270.94500   1191.02500  200.00000  17.89516             14.24447
279.80569   1330.67299  211.00000  18.92323             14.29062
280.46739   1288.84239  184.00000  16.97388             13.84052
280.20213   1383.44681  188.00000  16.57551             14.58213
285.07834   1468.94470  217.00000  18.24726             15.21872
288.18874   1156.97682  302.00000  23.69365             16.39069
290.64706   1537.91444  374.00000  24.04111             19.96201
287.31188   1358.19307  202.00000  16.92876             15.20477
297.71146   1276.68379  253.00000  24.28962             13.32475
296.33498   1124.94581  203.00000  18.89267             13.83090
296.20080   1442.73896  249.00000  19.04026             16.66894
297.13333   792.81818   165.00000  17.54836             12.10832
299.08000   1140.36000  175.00000  19.43630             11.61415
299.71074   1307.37603  242.00000  20.71033             14.95149
300.95455   1421.59091  154.00000  18.41210             10.92587
301.92958   1331.26761  213.00000  17.62247             15.43966
316.98851   1467.71648  261.00000  22.35812             14.95352
319.41241   1055.60219  274.00000  24.30338             14.50916
322.83902   1408.04390  410.00000  29.92993             17.56903
318.40000   1125.22222  180.00000  19.11214             12.06273
329.63750   793.57812   320.00000  25.08223             16.53426
330.96063   1037.69291  254.00000  26.81224             12.43611
327.11170   1385.93085  188.00000  17.25942             13.91334
331.05389   1103.08383  167.00000  19.18604             11.13125
333.50988   1306.83794  253.00000  23.11548             14.00747
334.44776   1241.55224  268.00000  22.62840             15.40652
336.03409   1374.26136  176.00000  16.32984             13.94298
338.91133   1117.73892  203.00000  17.96433             14.45521
349.47208   1053.39594  197.00000  20.52159             12.22789
349.94712   60.94231    208.00000  17.61151             15.13930
350.90964   726.34337   332.00000  23.10965             18.40702
356.86466   1435.58647  133.00000  14.53174             11.68230
363.84709   1373.88991  327.00000  23.16546             18.10718
363.40690   1329.93103  290.00000  22.38488             17.21343
366.98113   1407.06132  212.00000  18.28338             14.87277
370.80676   1423.73430  207.00000  22.27054             11.91907
365.32824   1489.54198  131.00000  14.06121             12.00810
377.42857   112.31169   77.00000   11.23437             8.88584
382.36667   699.06667   120.00000  13.36468             11.49912
384.73864   1346.02273  176.00000  17.84102             12.59353
386.03922   687.86928   153.00000  15.31920             12.75221
389.19512   1281.06707  164.00000  16.50827             12.79733
395.00339   1189.77288  295.00000  26.66494             14.26407
399.66031   1216.47328  262.00000  24.46886             13.86071
401.52778   1041.93519  216.00000  19.53504             14.16590
397.17000   1479.59000  100.00000  12.16072             10.55296
404.64634   809.00000   164.00000  22.10455             9.73414
404.45205   795.10274   146.00000  16.37424             11.35754
404.28667   1256.80667  150.00000  16.29907             11.75531
411.50167   48.05686    299.00000  24.84459             15.47959
408.93750   683.27083   144.00000  14.14406             13.14190
413.16335   1097.40637  251.00000  22.78946             14.21386
410.22222   1470.61806  144.00000  13.98305             13.11976
415.42079   1322.50000  202.00000  20.52777             12.64189
419.19847   647.45420   262.00000  19.11320             18.11348
419.11060   1251.34101  217.00000  18.29060             15.16443
423.49833   1055.78261  299.00000  23.67252             16.29719
421.21387   1385.82659  173.00000  16.83351             13.09451
422.16667   795.87879   132.00000  15.32985             11.04046
420.57303   810.88764   89.00000   14.51381             7.94256
424.42135   1085.10674  178.00000  16.21901             14.06843
424.01250   1403.36875  160.00000  19.16279             10.72891
424.03086   770.98765   162.00000  17.64053             11.73384
424.76692   1417.84211  133.00000  15.37535             11.05758
426.86301   1439.96804  219.00000  17.65914             15.92284
426.72081   1301.27919  197.00000  21.72139             11.74353
429.83333   1339.14341  258.00000  21.04757             15.75421
431.00625   1501.62500  160.00000  19.10846             10.74783
433.88710   1323.10215  186.00000  18.87463             12.56129
437.14948   1123.19588  194.00000  19.26281             12.88224
438.49778   1268.86222  225.00000  19.59493             14.75012
439.11111   643.97585   207.00000  18.25738             14.52325
441.82490   1486.79377  257.00000  24.40344             13.54174
441.62667   775.29333   150.00000  16.63157             11.50525
448.49704   1308.10651  169.00000  17.67995             12.20223
449.06707   1294.87805  164.00000  15.23590             13.76622
452.74390   803.20732   82.00000   13.47467             7.78451
460.30928   1321.03093  291.00000  21.06927             17.63657
460.39464   1100.38314  261.00000  19.44515             17.40930
459.66667   1219.41667  84.00000   11.70161             9.15697
465.20930   1142.25581  215.00000  20.34436             13.53259
470.09459   1436.30631  222.00000  23.38800             12.46134
467.89831   1209.76271  118.00000  14.16971             10.69376
470.69006   1309.12281  171.00000  15.51361             14.18610
479.12628   815.77474   293.00000  28.94035             13.91527
475.41327   734.70918   196.00000  19.29727             12.98740
477.11475   1478.45902  244.00000  22.32785             14.06018
476.92500   1173.67500  120.00000  13.89020             11.29967
479.64444   1352.81481  135.00000  13.67020             12.73572
484.44022   1391.83696  184.00000  18.12767             13.05975
489.05319   1218.10638  282.00000  22.55764             16.19137
490.60000   1127.69268  205.00000  18.53845             14.17249
489.65644   1168.83436  163.00000  17.27670             12.12806
495.08696   757.07609   184.00000  20.37938             11.72649
492.22222   1408.01932  207.00000  18.93789             13.99447
492.49697   1183.25455  165.00000  17.53157             11.98362
498.06897   724.89655   174.00000  17.00041             13.11411
502.40464   1043.37887  388.00000  24.66988             20.18487
505.03900   1357.44568  359.00000  25.42085             18.97024
506.00442   37.90708    226.00000  19.32634             15.48793
509.12185   673.70588   238.00000  20.58897             15.75716
505.41358   1233.20988  162.00000  16.52803             12.51665
507.08442   1171.80519  154.00000  16.17391             12.13860
508.87952   1378.54819  166.00000  15.65812             13.55043
513.13260   710.88398   181.00000  17.35669             13.42032
518.40884   1392.46409  181.00000  17.88118             12.93158
521.73010   1268.34948  289.00000  21.79309             17.06177
524.80838   825.92814   167.00000  23.08165             9.41040
522.12857   1334.08571  140.00000  13.55277             13.15177
526.53917   1456.94470  217.00000  21.90078             12.62601
527.94466   995.68379   253.00000  28.52187             11.81815
528.12500   1356.85000  240.00000  21.45140             14.38614
536.58650   835.57384   237.00000  25.36530             11.96083
533.93678   712.12644   174.00000  17.60126             12.70859
539.24747   369.23232   198.00000  19.37391             13.19703
543.98561   1078.78058  278.00000  28.81023             12.86073
539.15079   1197.32143  252.00000  18.61485             17.61972
540.92593   271.25463   216.00000  18.57575             14.96545
542.46721   1131.81967  244.00000  22.83418             13.73629
544.62745   582.01569   255.00000  18.20827             17.95787
546.66387   513.49580   238.00000  19.94198             15.28459
545.79412   1381.37745  204.00000  17.94751             14.64441
552.62112   798.45963   161.00000  32.38941             8.84692
546.73913   1286.58152  184.00000  16.82090             14.06944
549.36364   543.33992   253.00000  20.89584             15.54899
548.03049   1146.23171  164.00000  17.32779             12.09094
554.60000   1327.77500  200.00000  29.79348             8.79650
548.13139   291.07299   137.00000  15.57790             11.22580
556.04274   779.73932   234.00000  19.66698             15.40755
557.31050   1125.27397  219.00000  22.65460             13.13533
557.55474   847.64964   137.00000  16.17573             10.84251
559.65106   690.75319   235.00000  21.24151             14.25374
563.18972   656.87747   253.00000  21.29505             15.27085
562.14091   1224.44545  220.00000  18.97602             14.80970
562.19774   604.59887   177.00000  18.58256             12.43501
560.40394   1095.40394  203.00000  21.21957             12.63337
564.98969   97.38144    291.00000  21.56764             17.28751
563.82158   292.54357   241.00000  21.18336             14.51639
561.85484   1073.90323  124.00000  14.87380             10.76250
564.50570   1463.05703  263.00000  21.78009             15.88627
567.49451   1138.92857  182.00000  21.65488             10.85142
569.05983   1261.24786  234.00000  18.24385             16.54836
574.91600   525.96000   250.00000  27.12643             12.13073
570.94000   1055.26000  250.00000  19.77446             16.19949
568.10784   1101.95098  102.00000  13.93036             9.45137
569.10811   1427.12432  185.00000  18.09001             13.07994
568.00000   1342.65625  64.00000   9.82073              8.34642
570.18966   778.19828   116.00000  12.80650             11.66912
572.18026   990.75107   233.00000  22.35219             13.29563
573.78761   1092.11504  113.00000  13.44133             10.83051
575.33333   349.58333   240.00000  19.90616             15.48298
574.20805   928.97987   149.00000  16.08944             11.84581
573.56250   888.84375   64.00000   10.18683             8.04831
576.43478   608.35652   115.00000  14.35094             10.19041
578.41489   1130.38830  188.00000  25.30492             9.60634
579.50166   1234.87375  301.00000  22.44993             17.53889
578.10063   1347.74843  159.00000  15.25559             13.33664
582.89157   806.83735   166.00000  17.30489             12.23767
583.74895   1572.02092  239.00000  19.85786             15.38017
583.32420   974.96804   219.00000  19.95048             14.02630
584.98462   1210.14872  195.00000  18.50653             13.48891
587.36652   368.06335   221.00000  20.47047             13.78945
587.57368   556.66842   190.00000  18.62976             13.08481
585.89080   653.85057   174.00000  16.62195             13.40576
589.02128   1548.38298  235.00000  20.24687             15.00637
591.62230   610.87410   278.00000  23.30474             15.45359
590.12775   1320.33480  227.00000  20.70005             14.07499
589.13636   1138.52273  44.00000   7.80222              7.30514
595.04848   1216.90909  165.00000  16.10516             13.48196
603.04651   827.01938   258.00000  33.11840             10.18887
597.46277   384.45745   188.00000  17.70590             14.08722
595.92202   1281.51376  218.00000  17.47704             15.96422
597.32804   1655.11640  189.00000  16.02013             15.12833
599.49091   703.03273   275.00000  19.64059             17.86138
597.94611   722.25749   167.00000  16.20132             13.22955
600.53804   867.64674   184.00000  19.98504             11.81248
599.83810   1188.94286  210.00000  17.40809             15.44856
605.05179   1330.58566  251.00000  21.03602             15.69285
601.52500   507.13333   120.00000  14.96258             10.28073
607.58122   1065.75381  394.00000  25.24982             20.43315
613.21359   847.41262   206.00000  26.20659             11.50488
612.00917   776.60550   218.00000  23.71265             11.91670
612.15417   566.87083   240.00000  23.69943             13.70973
608.49398   760.25301   83.00000   12.81539             8.24293
610.17925   1734.00472  212.00000  18.88541             14.32890
614.44828   654.02299   174.00000  15.59288             14.25166
616.82500   673.61071   280.00000  19.85501             18.38651
614.83598   728.98942   189.00000  16.39360             14.77673
618.97931   577.91034   145.00000  16.75185             11.34105
619.65863   606.20884   249.00000  23.34762             13.76294
620.52907   425.20349   172.00000  19.78450             11.13511
624.47718   1088.12448  241.00000  25.72563             12.16732
621.86957   1166.94466  253.00000  20.12160             16.06661
622.10156   524.12500   128.00000  14.29479             11.66700
623.16352   629.33962   159.00000  18.01912             11.50255
623.91866   1350.19617  209.00000  17.17139             15.61011
624.58898   455.55932   236.00000  19.02768             15.90016
623.76293   1254.33190  232.00000  28.78947             10.68456
622.64815   782.72222   54.00000   10.06436             6.91300
627.91111   621.15556   90.00000   12.21287             9.61590
634.66867   498.67470   332.00000  23.63025             19.01154
633.19130   773.00290   345.00000  24.18432             18.56394
632.91603   804.40458   262.00000  19.95338             16.84735
633.62595   1272.68702  262.00000  21.48471             16.32700
633.24194   1171.90323  124.00000  18.12025             8.93647
633.73973   789.98630   146.00000  17.49855             10.75768
634.47826   549.50000   138.00000  14.03115             12.57974
640.82969   1141.46725  229.00000  23.70136             12.44096
643.88571   394.68095   210.00000  24.58151             11.02755
636.02500   1037.85000  40.00000   7.77980              6.59581
643.72889   373.51556   225.00000  19.94446             14.54948
643.63830   515.53723   188.00000  15.87034             15.18313
643.62360   559.96629   178.00000  17.14088             13.30353
642.82540   1226.44444  189.00000  17.56610             13.87761
649.02564   718.57692   234.00000  21.12599             14.25462
649.33962   645.21226   212.00000  17.17313             15.83251
646.37500   707.16964   112.00000  14.11850             10.13270
650.75319   887.85106   235.00000  19.47392             15.40926
650.42241   290.48707   232.00000  18.73590             15.94511
650.99359   757.54487   156.00000  17.62346             11.35652
650.41139   1251.48101  158.00000  17.17274             11.80231
651.45729   1282.05528  199.00000  17.99349             14.14056
656.35648   573.57407   216.00000  21.02812             14.02883
655.75738   250.64918   305.00000  23.30703             16.82531
653.22785   819.31013   158.00000  17.25376             11.66577
654.78610   1147.34759  187.00000  19.74929             12.13586
655.39583   404.12500   96.00000   11.39205             10.99079
659.44944   586.14607   178.00000  21.84220             10.66219
653.91228   1265.98246  114.00000  13.80761             10.58768
656.57724   476.64228   123.00000  15.50495             10.18959
658.95714   539.70714   280.00000  20.69139             17.55503
658.20085   697.58974   234.00000  23.62065             12.99672
660.34975   1230.26601  203.00000  19.21424             13.51589
661.82828   1301.47138  297.00000  24.28402             15.73122
662.06699   608.02392   209.00000  20.23651             13.19602
662.15423   133.05473   201.00000  17.25912             14.82913
663.44056   744.16783   143.00000  16.59173             11.31793
661.76364   465.75455   110.00000  14.07558             10.33363
665.95000   455.15000   180.00000  19.46599             11.84566
664.42857   651.51786   168.00000  19.40270             11.11930
664.92614   814.86932   176.00000  19.58038             11.72693
667.27273   687.68984   187.00000  18.47186             13.15710
668.02381   711.26667   210.00000  20.06298             13.44005
669.58051   775.72881   236.00000  21.03423             14.56288
668.35333   842.72667   150.00000  22.38698             8.88165
669.45259   860.04310   232.00000  18.60340             16.05335
669.76282   428.46795   156.00000  15.96098             12.50732
672.12987   469.66883   154.00000  19.66554             10.56927
670.17829   571.49612   129.00000  15.25583             10.84737
671.39175   304.97423   194.00000  16.76442             14.76529
670.83007   1149.20261  153.00000  16.17713             12.07297
677.12389   513.94690   339.00000  21.86552             19.90192
674.98734   666.33544   158.00000  17.11056             11.94959
676.73494   351.78313   166.00000  16.48696             12.84720
677.12329   378.42466   146.00000  17.98784             10.71138
677.87425   403.08383   167.00000  15.48881             13.76342
678.17989   1106.04762  189.00000  17.84332             13.67048
677.91919   543.62626   99.00000   14.99318             8.63728
683.22993   639.01095   274.00000  20.13800             17.41989
681.69588   261.78351   194.00000  16.13771             15.42338
682.34783   538.04348   92.00000   17.11525             7.00730
682.85802   1119.07407  162.00000  16.24795             13.17644
688.82353   311.43137   306.00000  28.18993             14.80050
687.32796   718.96237   186.00000  21.08832             11.84811
686.20603   1806.13568  199.00000  18.26609             13.93197
689.00000   143.59624   213.00000  18.35901             14.94216
688.40120   604.64671   167.00000  18.63714             11.65937
691.08696   679.23913   138.00000  16.16237             10.92278
692.74138   780.38793   232.00000  22.39879             13.27387
692.08252   501.48544   206.00000  18.79821             14.21438
692.01149   667.71264   174.00000  19.63056             11.42222
692.41985   546.66412   131.00000  15.01902             11.23934
694.53425   587.84247   146.00000  17.91068             10.43952
694.50000   564.07143   140.00000  14.20095             12.57526
698.62381   701.13333   210.00000  22.97277             11.67448
692.70423   1119.73239  71.00000   12.19066             7.64328
697.50000   1129.10000  180.00000  17.53043             13.29292
700.34768   468.15563   302.00000  21.23584             18.39132
698.11518   323.40314   191.00000  17.41839             14.02939
700.58602   825.47849   186.00000  19.35060             12.37621
701.16667   1345.10078  258.00000  20.19808             16.57648
701.13174   1771.86826  167.00000  16.01943             13.33388
699.93023   366.36047   86.00000   12.31502             8.94672
702.66871   596.20245   163.00000  17.24533             12.44829
704.60843   574.56024   166.00000  14.93614             14.36161
705.65217   491.42512   207.00000  18.70124             14.24921
706.44670   1117.53807  197.00000  17.17575             14.72976
711.40183   721.15068   219.00000  20.77031             13.87170
710.34459   766.93243   148.00000  15.93908             11.94016
711.19497   373.27673   159.00000  15.86061             12.88132
710.88732   507.30986   142.00000  15.67541             11.84792
710.13084   751.26168   107.00000  13.09911             10.40025
713.44550   814.52607   211.00000  18.54073             14.58016
713.34197   426.37824   193.00000  17.09311             14.40341
715.36255   1276.74104  251.00000  25.65890             12.68397
719.66975   271.59259   324.00000  21.33249             19.51335
718.20000   341.67317   205.00000  17.24513             16.36066
716.17808   1784.07534  146.00000  15.17597             12.31532
718.43275   31.73684    171.00000  19.29329             11.56286
722.69048   442.70833   168.00000  17.68911             12.13854
721.53448   514.14655   232.00000  23.06361             13.19288
724.31081   403.61486   148.00000  16.21909             11.66865
724.23729   497.11864   177.00000  18.66105             12.30201
723.35156   633.43750   128.00000  13.67742             12.03175
724.37430   148.15084   179.00000  19.44307             11.73109
724.35814   592.56279   215.00000  20.12224             13.75241
727.31677   765.52174   161.00000  16.72243             12.59062
726.77714   1821.68000  175.00000  16.06103             14.09514
725.46457   10.63780    127.00000  14.71877             11.24295
728.35117   1243.80936  299.00000  22.07496             17.30123
728.15278   479.61111   144.00000  15.57932             11.81536
729.41695   367.79661   295.00000  22.91852             16.50238
728.00719   570.28058   139.00000  13.74779             12.94192
738.74900   717.33068   251.00000  39.12563             8.70986
729.93431   1452.73358  274.00000  22.50168             15.63366
730.23370   256.01630   184.00000  16.75271             14.06936
730.76389   641.51389   144.00000  15.85723             11.70412
732.18471   815.62420   157.00000  17.09332             11.77903
732.71429   332.17512   217.00000  20.12510             13.76177
732.96569   1134.06373  204.00000  18.14159             14.45666
736.12141   1179.93291  313.00000  23.45652             17.22400
734.67857   420.66964   112.00000  16.25176             8.86701
735.77824   844.94561   239.00000  19.91142             15.43208
733.62069   467.53448   116.00000  14.45902             10.24165
731.68571   579.91429   35.00000   7.26624              6.07720
737.94068   299.16525   236.00000  20.73217             14.65498
736.67488   703.03448   203.00000  20.65291             12.79021
735.49206   1932.07937  126.00000  14.88414             10.82084
739.88136   492.45763   177.00000  16.11124             14.00218
745.92228   732.72539   193.00000  25.86828             9.61192
741.17829   648.98450   129.00000  14.35361             11.57267
742.63063   778.17117   222.00000  18.68352             15.39815
741.87709   823.71508   179.00000  16.04668             14.32903
745.78903   169.83966   237.00000  20.66172             14.73891
743.24088   474.38686   137.00000  14.37471             12.42676
747.44141   676.16406   256.00000  21.00917             15.85494
740.69841   1195.03175  63.00000   9.11803              8.78452
745.62019   387.23077   208.00000  17.15495             15.60108
746.44286   808.80476   210.00000  18.92601             14.20266
746.50242   881.60386   207.00000  18.64293             14.23806
748.96070   580.75109   229.00000  25.21754             11.87943
748.24402   599.26794   209.00000  17.72795             15.09971
748.52444   1704.75111  225.00000  19.91094             14.43246
749.98238   231.86784   227.00000  18.20493             15.99549
750.32857   433.95714   280.00000  20.57356             17.57597
749.28800   1147.76000  250.00000  25.61037             13.08329
748.62500   408.25893   112.00000  13.10226             11.04573
753.26667   641.94872   195.00000  18.27094             13.65089
759.77419   1434.27016  248.00000  21.87735             14.59932
756.65868   326.89820   167.00000  15.87767             13.44054
758.68722   303.62115   227.00000  17.99917             16.09637
759.82039   489.98058   206.00000  17.34931             15.21604
769.27896   548.52009   423.00000  33.63257             16.28341
763.17365   284.50898   167.00000  17.45579             12.28542
763.18376   706.07265   234.00000  23.96844             12.61393
764.05500   1838.48000  200.00000  18.56146             13.86136
760.39286   2002.85714  56.00000   9.48883              8.29943
765.09129   839.65145   241.00000  18.28312             16.82072
760.52632   1113.89474  38.00000   8.01361              6.10557
769.33333   587.06667   240.00000  20.31654             15.54957
770.78824   410.32353   170.00000  16.42227             13.21003
770.14388   633.64748   139.00000  14.59393             12.21657
774.43231   730.24891   229.00000  21.28725             13.78904
774.73790   1690.86290  248.00000  20.97305             15.11533
773.43382   364.52206   136.00000  15.90808             10.94515
777.28980   474.72653   245.00000  20.19428             15.55824
777.16730   774.25095   263.00000  20.40308             16.57775
775.80000   919.78710   155.00000  16.46457             12.10989
776.50000   428.01176   170.00000  16.65145             13.13988
785.34272   510.22066   213.00000  21.87702             12.58121
782.97414   220.84914   232.00000  19.06696             15.59864
784.54032   379.09274   248.00000  19.21791             16.71754
785.72314   747.28099   242.00000  21.96411             14.35952
787.51791   634.73829   363.00000  32.30819             14.56230
789.91729   715.87970   266.00000  31.68799             10.87644
787.99228   402.04247   259.00000  24.29762             13.68556
783.83237   459.90173   173.00000  16.06830             13.76865
786.17450   915.79866   149.00000  18.03456             10.82169
789.18391   1234.91954  261.00000  24.58099             13.99301
789.05738   1415.12705  244.00000  24.30346             12.89229
790.90625   483.93229   192.00000  20.76958             11.93709
787.48214   666.66518   224.00000  20.00781             14.40099
787.22523   498.69369   111.00000  13.16692             10.92623
789.59330   1118.51675  209.00000  18.99704             14.19085
790.71831   326.17606   142.00000  15.29153             12.01915
794.41379   357.89028   319.00000  22.61379             18.24505
796.89967   184.30769   299.00000  24.33174             16.27367
793.66038   585.32704   159.00000  18.26915             11.26868
793.58209   777.26119   134.00000  14.33455             11.92797
797.40127   296.34076   314.00000  23.41702             17.21571
795.39815   74.01852    108.00000  14.66932             9.43843
804.84000   233.37684   475.00000  25.92125             24.65494
797.07692   440.55245   143.00000  14.84212             12.28419
794.97015   475.28358   67.00000   10.46631             8.24749
799.64773   1141.14773  176.00000  16.11917             14.10421
794.24000   534.64000   25.00000   6.13382              5.15569
798.77953   821.22835   127.00000  14.59193             11.14608
799.64767   962.94819   193.00000  20.75967             11.92384
799.95767   1674.51323  189.00000  19.24443             12.56901
801.74632   667.92279   272.00000  23.11591             15.08604
801.26562   810.32031   128.00000  13.33194             12.50456
806.30601   1399.03825  183.00000  20.88233             11.73859
806.91979   1388.80214  187.00000  19.16739             12.57319
806.63303   379.19266   218.00000  18.02574             15.48582
804.42727   473.72727   110.00000  12.51818             11.38670
803.80612   530.13265   98.00000   12.67653             9.86718
805.63291   74.77215    79.00000   11.24816             8.99569
807.77241   445.68276   145.00000  17.76164             10.69139
809.60697   577.87562   201.00000  16.68682             15.57090
810.97285   789.11765   221.00000  19.94036             14.21409
808.22609   637.80870   115.00000  15.85596             9.48697
811.55479   1937.73288  146.00000  17.78021             10.66503
810.50467   1886.54206  107.00000  12.80100             10.75440
816.21608   699.63819   199.00000  17.74403             14.40185
815.93048   715.92513   187.00000  19.45907             12.55240
813.41341   967.04469   179.00000  18.99234             12.21636
813.21667   471.04167   120.00000  16.24070             9.48653
818.52466   415.61435   223.00000  17.89321             16.06292
820.83265   1117.37959  245.00000  21.37678             14.95471
816.93923   448.91713   181.00000  20.77809             11.24377
819.18137   346.25490   204.00000  17.52639             14.81537
816.74286   636.40714   140.00000  19.35028             9.57523
818.85496   526.20611   131.00000  13.52260             12.39802
816.09677   495.80645   31.00000   7.28995              5.40409
822.45732   569.20122   164.00000  17.07090             12.36064
824.31224   768.45148   237.00000  20.76249             14.67097
821.61538   983.55385   195.00000  19.72927             12.67641
823.05699   284.68394   193.00000  17.54589             14.13643
823.65842   155.36139   202.00000  16.99802             15.19321
823.79861   547.64583   144.00000  17.03796             10.80878
823.75000   604.18939   132.00000  14.77432             11.38952
822.49425   744.09195   87.00000   13.54700             8.34998
824.91743   591.02752   109.00000  13.43359             10.36424
826.86517   1672.14607  178.00000  15.68076             14.62484
823.68000   1831.09333  75.00000   10.78835             8.89759
827.15254   635.05085   177.00000  17.62064             13.62836
829.19858   377.43972   141.00000  15.35655             11.98098
828.67826   749.69565   115.00000  15.19354             9.67114
832.47619   250.40293   273.00000  20.38207             17.18252
830.01429   367.26429   140.00000  15.95151             11.26688
830.84615   625.67308   104.00000  13.38991             10.25101
831.78169   712.11268   142.00000  14.28275             12.66672
833.85714   1369.47876  259.00000  20.63478             16.36609
833.95055   447.39011   182.00000  18.48667             12.64345
832.98601   786.82517   143.00000  15.10451             12.16918
836.12979   214.38643   339.00000  23.35789             18.99288
843.20532   406.79848   263.00000  34.95880             10.03923
836.82381   879.71905   210.00000  18.26621             14.75047
835.47788   1953.66372  113.00000  13.38271             10.79196
836.96795   591.94231   156.00000  16.42201             12.21985
840.00585   82.42690    171.00000  16.77877             13.02093
839.07273   561.92727   165.00000  16.28476             12.92758
842.32416   1198.53517  327.00000  25.07361             16.88416
842.32489   494.45570   237.00000  17.62601             17.20539
845.65417   1122.06250  240.00000  23.15034             13.23954
842.91720   349.10191   157.00000  15.22688             13.12823
848.97573   607.33495   206.00000  26.23654             10.23295
845.89545   265.63636   220.00000  17.59855             15.93397
848.62462   632.71471   333.00000  25.56744             17.11851
848.04211   683.71053   190.00000  18.83356             13.27489
850.15528   369.48447   161.00000  15.73693             13.12470
852.24074   670.77778   162.00000  16.94819             13.30848
853.32443   442.61450   262.00000  20.39195             16.39260
853.38065   529.83226   155.00000  19.01337             10.58821
853.71591   1025.81250  176.00000  19.61065             11.43461
855.20678   854.47119   295.00000  23.01824             16.66251
851.96809   330.34043   94.00000   12.05265             9.95796
858.08553   1630.00658  304.00000  24.21470             16.28542
858.20000   1670.24444  270.00000  23.15081             15.29316
855.19853   386.90441   136.00000  15.04786             11.53345
858.33688   1310.69504  282.00000  22.79715             16.25485
858.80000   1327.70400  250.00000  21.09733             15.24089
854.70345   713.90345   145.00000  22.63073             9.26269
858.08995   615.83598   189.00000  17.12329             14.14027
858.20588   104.90441   136.00000  16.65584             10.44846
858.97024   315.86310   168.00000  17.43203             12.31340
860.75622   473.43781   201.00000  18.76762             13.64721
861.55612   689.55612   196.00000  17.93050             14.36081
864.18750   346.64803   304.00000  22.39595             17.44716
863.95556   716.61111   180.00000  18.95571             12.37950
860.05769   369.69231   52.00000   9.72826              6.89095
867.30769   65.92308    104.00000  14.61227             9.71651
866.62232   548.62661   233.00000  19.61741             15.23269
867.30000   663.55294   170.00000  18.00838             12.06264
870.39700   1129.88015  267.00000  25.46754             13.81449
865.68613   142.50365   137.00000  15.09927             11.59715
867.73504   492.28632   234.00000  22.23868             13.56331
868.45783   1017.62651  166.00000  16.37945             13.02667
867.00943   386.74528   106.00000  11.95963             11.29716
868.41071   764.74107   112.00000  13.77243             10.42551
872.34188   858.22650   234.00000  23.20631             12.97889
869.86555   705.77311   119.00000  13.92065             10.91110
874.78439   1163.68773  269.00000  24.65096             14.13439
874.91498   269.76113   247.00000  22.59895             13.92169
876.01832   572.64103   273.00000  19.77110             17.78349
871.87826   811.60000   230.00000  22.34078             13.35816
874.74163   729.84211   209.00000  17.64425             15.09200
876.54348   826.83696   184.00000  18.54657             12.78261
874.82775   1887.16268  209.00000  17.08029             15.69436
871.73333   461.64444   45.00000   9.52031              6.02798
878.11207   209.83190   232.00000  20.07287             14.81655
875.80357   239.52976   168.00000  14.90879             14.50948
881.72430   528.11682   214.00000  22.03336             12.42748
883.54545   304.51724   319.00000  24.67953             16.86268
880.23563   384.86207   174.00000  16.95549             13.06251
879.16514   401.98624   218.00000  18.28495             15.72618
878.90000   611.08462   130.00000  17.14736             9.75238
885.07178   1294.00743  404.00000  34.70584             15.65518
882.61905   493.61905   252.00000  22.43004             14.44185
882.45622   252.88479   217.00000  19.89422             13.90472
880.92857   477.44643   112.00000  15.28925             9.49270
885.16835   628.06734   297.00000  20.23316             18.95748
882.33898   1626.71186  177.00000  15.61940             14.56595
882.38172   440.09677   186.00000  18.30279             13.09640
886.22256   1656.18902  328.00000  23.52134             18.77900
884.35526   755.04605   152.00000  15.34512             12.70103
886.78873   549.64789   213.00000  19.81598             13.78201
887.02597   1745.45887  231.00000  23.60040             13.23728
887.74436   409.72180   133.00000  15.39016             11.12683
887.08411   318.67290   107.00000  12.93089             10.51633
890.60591   365.84729   203.00000  16.48627             15.78754
894.82422   1468.17188  256.00000  26.57775             12.33262
896.98983   1702.80000  295.00000  25.92640             16.52836
899.23009   444.69617   339.00000  24.48698             17.78996
900.23529   175.36078   255.00000  23.19848             14.98676
897.51366   714.78689   183.00000  18.85669             12.62670
898.05687   237.93365   211.00000  17.38052             15.51560
900.09705   1628.12658  237.00000  18.89937             16.28056
898.89437   346.59859   142.00000  13.60944             13.33315
900.91371   649.86294   197.00000  21.07003             11.99237
899.89796   739.92517   147.00000  14.71073             13.28462
904.38411   541.40066   302.00000  23.52923             16.64956
904.21603   1608.00348  287.00000  23.79664             16.16631
901.88961   753.34416   154.00000  16.69882             11.94771
904.63823   1111.08874  293.00000  23.46884             15.98475
905.30198   1789.44059  202.00000  21.24205             12.49049
902.22927   1818.24390  205.00000  17.70009             14.79344
902.62903   203.40860   186.00000  17.09212             14.05432
903.50510   629.15306   196.00000  18.34733             13.65689
904.16981   615.37736   159.00000  16.48346             12.81395
905.43902   1763.75122  205.00000  18.18334             14.50733
906.85185   332.87654   162.00000  17.35535             11.97628
905.92350   577.75956   183.00000  16.52401             14.12953
906.52740   694.75342   146.00000  14.78986             12.91283
907.59641   1558.60090  223.00000  20.23546             14.05209
906.73885   1939.92357  157.00000  15.81003             12.72410
909.15854   1639.40244  246.00000  20.68855             15.16785
907.21260   1853.55118  127.00000  13.69060             11.80914
908.44776   720.94776   134.00000  16.42331             10.57635
910.64796   1084.10714  196.00000  17.59456             14.24922
911.37288   159.99153   118.00000  15.08232             10.06385
915.49751   646.58706   201.00000  20.37122             12.82939
911.03810   1334.40952  105.00000  12.07224             11.06054
914.50000   289.63462   208.00000  16.74456             15.89699
919.39085   515.44014   284.00000  24.31295             15.08517
914.97203   608.11189   143.00000  16.31814             11.43277
913.33438   775.96215   317.00000  33.29531             12.64594
911.89655   347.36207   58.00000   12.61119             5.94800
912.34091   1892.80682  88.00000   12.49861             9.12842
913.56522   739.89441   161.00000  20.18400             10.16324
917.49194   1136.97984  248.00000  18.56919             17.02039
918.73251   134.43621   243.00000  22.07577             14.12910
919.50195   262.59144   257.00000  19.83970             16.67810
917.10853   2014.93023  129.00000  14.14764             11.73927
917.27000   670.21000   100.00000  11.73356             10.86516
920.29439   1859.16822  214.00000  20.76573             13.22385
921.20219   366.40437   183.00000  16.64366             14.10431
919.78992   445.78151   119.00000  13.99193             11.00036
921.58333   347.66667   168.00000  16.64808             12.90996
923.52083   319.26562   192.00000  16.48764             14.90879
923.31361   683.11834   169.00000  16.79403             13.02876
925.93855   1273.18994  179.00000  18.12594             12.60741
923.63717   554.75221   113.00000  13.23693             10.96879
928.12209   460.69767   172.00000  20.03227             11.31711
927.46243   244.56647   173.00000  17.40835             12.70294
930.46000   373.89000   100.00000  13.60204             9.84913
931.18129   690.64327   171.00000  18.88969             12.07037
932.73494   1461.21687  166.00000  17.30780             12.25668
935.32212   1620.86058  208.00000  20.36079             13.11802
933.40000   480.11429   105.00000  12.16448             11.05998
934.88095   609.98810   168.00000  15.76576             13.76581
939.21393   309.28358   201.00000  16.99402             15.35679
942.66857   696.86857   175.00000  20.83545             10.81210
940.76510   929.40604   298.00000  30.08473             13.32324
938.51675   976.84211   209.00000  19.27419             13.91523
941.17672   1045.90086  232.00000  21.33234             13.95060
941.23228   542.94094   254.00000  21.41113             15.15013
944.58000   177.11667   300.00000  24.70029             15.64020
944.26286   287.33714   175.00000  23.00126             10.00318
945.06077   461.49171   181.00000  16.65627             14.12533
943.40777   667.15534   103.00000  14.02113             9.56390
945.12941   158.34706   170.00000  15.40007             14.11825
944.26087   382.14493   138.00000  13.76260             12.81330
946.65950   509.06093   279.00000  19.72334             18.28371
942.26154   1130.43077  65.00000   10.37866             7.98296
947.25434   599.42775   173.00000  16.89214             13.27650
945.44595   656.56757   148.00000  17.93842             10.75708
948.72872   1468.55319  188.00000  19.17290             12.56924
951.29577   1248.97183  213.00000  17.16462             15.87277
951.84264   441.83756   197.00000  20.99637             12.01348
954.51394   565.58566   251.00000  22.55773             14.22193
953.93158   708.95789   190.00000  21.60374             11.29679
957.13589   628.42160   287.00000  23.32897             16.05455
953.51190   737.34127   252.00000  21.17821             15.29286
959.45139   531.32292   288.00000  24.42872             15.32348
955.84834   128.45972   211.00000  17.36533             15.63275
954.17687   221.57143   147.00000  16.06027             11.96661
955.54301   1102.74731  186.00000  17.72730             13.41493
953.63115   1919.55738  122.00000  14.63523             10.67739
953.11765   1598.97059  68.00000   9.68249              8.95163
960.67449   976.06452   341.00000  26.59461             16.70821
959.28926   381.84298   242.00000  19.86017             15.61962
961.41743   447.96330   218.00000  21.42154             13.35596
961.31875   1111.46250  160.00000  19.71225             10.93979
957.90385   675.63462   104.00000  14.44647             10.14207
959.42373   687.04237   118.00000  12.58150             12.19159
960.19474   1030.67895  190.00000  15.92724             15.23098
963.04472   317.59350   246.00000  19.47467             16.11481
962.48619   583.77348   181.00000  16.27520             14.29739
959.88235   1000.94118  34.00000   7.38808              5.87803
966.09756   204.26829   205.00000  17.06843             15.37717
965.45755   413.17925   212.00000  18.07296             15.23139
963.79389   876.06107   131.00000  15.02282             11.23327
966.21831   159.89437   142.00000  14.97699             12.12561
972.61842   1606.28070  228.00000  25.99034             11.36320
969.80488   36.56098    205.00000  17.59750             14.84885
968.36170   356.67376   141.00000  14.49007             12.48320
968.92593   594.89630   135.00000  14.40552             12.25345
966.21930   674.17544   114.00000  13.82124             11.03070
972.54787   1039.73936  188.00000  19.76513             12.39951
969.78161   1897.18966  174.00000  15.95082             13.92106
967.64706   1476.37255  51.00000   9.29719              6.95190
973.47805   886.90732   205.00000  20.31823             13.29589
971.76190   366.48810   84.00000   12.64770             8.64555
975.90566   471.93082   318.00000  21.42322             19.02257
976.13021   1586.30208  192.00000  19.10544             13.08947
977.22695   338.77660   282.00000  21.13124             17.36111
976.82609   776.83230   322.00000  29.64769             14.40086
979.69347   669.05528   199.00000  19.13974             13.28306
978.50526   353.22105   95.00000   12.19938             10.15631
979.09942   1093.60234  171.00000  17.77332             12.42592
979.77901   1469.73481  181.00000  16.82783             13.98659
985.91770   523.73251   243.00000  26.29395             11.84747
977.90580   554.39855   138.00000  16.09375             10.94336
981.49749   299.85427   199.00000  18.48661             13.78062
982.38889   598.92424   198.00000  19.19310             13.23075
981.67407   1082.70370  135.00000  13.79183             12.65319
981.61745   172.14094   149.00000  16.07621             11.82636
984.52915   687.33632   223.00000  22.65586             12.66437
984.71951   538.02439   164.00000  15.81641             13.23290
986.14935   748.01948   154.00000  19.16111             10.29792
988.32468   388.29221   308.00000  24.94140             15.99728
985.95000   1941.54000  100.00000  12.29659             10.40424
990.58824   444.51131   221.00000  17.66163             15.94147
989.56494   502.70779   154.00000  16.00568             12.24830
988.51064   211.52482   141.00000  13.89911             13.42360
991.66292   550.45506   178.00000  18.37385             12.37662
993.49810   1000.25475  263.00000  21.51023             15.63892
998.30225   409.79421   311.00000  25.72866             16.25440
998.10664   1259.12085  422.00000  28.51167             19.77925
996.61039   326.60606   231.00000  20.78061             14.18123
993.79720   644.68531   143.00000  16.88644             10.84623
998.92126   1052.51969  254.00000  24.57681             13.57398
1001.62179  284.50962   312.00000  22.94009             17.44958
1000.51636  798.49818   275.00000  25.82402             13.83840
1000.33480  229.70044   227.00000  19.06708             15.27491
1003.22337  252.99656   291.00000  23.88881             15.55095
1003.75000  1891.73387  248.00000  21.42959             14.82568
1002.77130  305.45740   223.00000  18.58154             15.33233
1005.42188  614.55078   256.00000  21.38277             15.69677
1005.88235  459.93015   272.00000  27.20565             13.62827
1005.04412  1101.61765  204.00000  16.95960             15.42477
1003.71250  1477.01250  160.00000  15.36864             13.27705
1006.42000  1158.04000  200.00000  18.55358             13.75633
1008.77695  1215.48699  269.00000  27.08341             12.70463
1005.87281  508.61404   228.00000  25.71164             11.44578
1008.21610  562.29237   236.00000  21.45478             14.09236
1005.61778  688.88444   225.00000  22.92297             12.64575
1008.35154  852.55973   293.00000  20.30090             18.45045
1001.42424  1456.57576  33.00000   6.68318              6.22799
1006.18232  1528.91713  181.00000  16.29159             14.22230
1007.75385  640.65641   195.00000  18.21188             13.81461
1014.46614  1227.29880  251.00000  22.79560             14.09633
1009.93902  1489.14634  82.00000   11.94676             8.73985
1017.08036  668.37946   224.00000  20.63063             14.07779
1018.80412  239.89175   194.00000  16.05357             15.39169
1018.01765  297.45882   170.00000  16.14260             13.40925
1020.99200  394.34400   250.00000  26.25409             12.30140
1020.35961  755.56158   203.00000  19.06039             13.59044
1019.35345  509.17241   116.00000  14.62770             10.22357
1023.59839  1586.41767  249.00000  21.17381             16.33242
1023.63684  207.26316   190.00000  16.66344             14.60051
1022.00543  728.30978   184.00000  17.72778             13.28020
1026.54723  142.83713   307.00000  21.34650             18.51939
1026.50000  769.16279   172.00000  16.19589             13.67613
1026.13359  597.25573   262.00000  30.80477             12.41372
1026.99219  630.87500   128.00000  14.03338             11.65926
1030.12605  1300.05462  238.00000  20.88067             14.75166
1033.76133  336.57704   331.00000  27.02883             16.53708
1028.12426  354.71598   169.00000  16.05040             13.43209
1029.68142  500.00885   113.00000  15.82173             9.29049
1028.17614  1173.94318  176.00000  18.29049             12.35464
1031.50235  714.66197   213.00000  19.09273             14.21518
1032.81500  311.51000   200.00000  19.19127             13.35162
1033.18627  229.79902   204.00000  17.04931             15.23547
1034.51333  532.12000   150.00000  17.97279             10.70820
1037.51724  1197.70846  319.00000  25.82845             15.82199
1037.23729  674.39548   177.00000  17.26009             13.30635
1033.78481  201.56962   79.00000   10.17601             9.89489
1038.62140  599.95473   243.00000  22.42357             15.29979
1039.89474  727.89035   228.00000  22.37793             13.48094
1040.78788  783.02165   231.00000  19.34784             15.23946
1039.32044  1592.88398  181.00000  17.89305             13.02154
1040.52451  388.12745   204.00000  20.29902             13.06971
1042.59794  810.72680   194.00000  17.79070             13.93206
1045.45333  285.42667   300.00000  21.15351             18.18960
1045.53604  209.21171   222.00000  18.51858             15.37519
1046.01724  1063.50431  232.00000  18.52909             16.16655
1044.60000  523.91429   140.00000  14.78927             12.07004
1045.84848  581.84848   165.00000  16.28211             13.21343
1047.25316  699.21941   237.00000  17.91022             17.10115
1050.82197  1553.63636  264.00000  28.89525             12.50282
1052.08392  421.62587   286.00000  21.53603             16.98130
1046.64103  492.97436   39.00000   8.20356              6.14054
1049.67424  652.66667   132.00000  15.34621             11.14858
1051.71892  1604.02162  185.00000  18.72256             12.69090
1055.89401  464.03226   217.00000  27.68394             10.76271
1055.74057  763.28302   212.00000  18.52095             14.58523
1055.64286  510.56429   140.00000  14.56056             12.23334
1060.57227  1220.52802  339.00000  25.87400             16.94718
1059.72832  315.87861   173.00000  17.51404             12.61263
1058.99383  677.12963   162.00000  17.20083             12.04766
1061.52962  262.44948   287.00000  21.20654             17.63700
1063.63571  470.66429   140.00000  19.82468             9.07578
1066.54362  802.46309   298.00000  22.31884             17.38679
1065.32806  338.71937   253.00000  20.44322             15.87381
1064.30000  699.00476   210.00000  21.19211             12.69896
1063.08197  607.59836   122.00000  14.05110             11.10941
1069.68790  661.47771   314.00000  24.56917             16.37341
1066.93171  996.61951   205.00000  19.08648             13.77124
1065.84375  620.53125   160.00000  15.14325             13.86996
1064.64583  726.51042   96.00000   13.02726             9.39584
1067.57778  843.19556   225.00000  20.36357             14.26833
1069.07879  570.10909   165.00000  17.59485             12.06641
1069.33935  195.90614   277.00000  23.12994             15.42950
1070.05882  738.60000   170.00000  16.82263             13.05672
1075.38435  446.07823   294.00000  24.02149             16.04043
1073.06500  855.26500   200.00000  17.79144             14.42891
1077.14013  1081.22611  314.00000  34.87029             13.33930
1074.74131  1597.53668  259.00000  20.93615             16.13596
1074.71014  1868.62319  138.00000  15.45166             11.40333
1075.80000  221.33077   130.00000  14.51162             11.46798
1077.96078  725.86928   153.00000  16.37658             12.05026
1084.65272  187.27615   239.00000  22.78035             13.52442
1084.20968  588.43548   124.00000  14.19587             11.63549
1088.49794  772.06173   243.00000  21.86414             15.63490
1086.43066  599.48905   137.00000  18.18465             9.58322
1087.67708  557.34375   96.00000   14.92491             8.20699
1086.30417  616.24167   240.00000  24.64087             13.41938
1090.80808  711.43434   198.00000  18.47641             13.87041
1093.21622  662.52432   185.00000  20.14583             11.78106
1090.13333  1867.08333  120.00000  13.22411             11.60147
1091.45455  354.92424   198.00000  17.77450             14.18859
1093.89011  803.23810   273.00000  21.18779             16.51637
1093.15385  325.66154   195.00000  16.69970             14.88471
1098.20747  419.04149   241.00000  25.93506             12.46341
1097.91398  843.87097   279.00000  20.76246             17.82164
1095.56021  1519.12042  191.00000  16.78766             14.58392
1097.15596  643.18349   218.00000  18.31406             15.54270
1100.51908  1196.55344  262.00000  22.83151             14.84419
1095.26966  586.19101   89.00000   11.76003             9.88924
1098.63125  477.65625   160.00000  14.84862             13.75690
1102.44615  1001.08205  195.00000  19.06317             13.10746
1109.91811  506.55831   403.00000  32.14283             19.00233
1098.36111  1904.15278  72.00000   9.98045              9.25789
1102.57576  1178.01010  198.00000  17.92158             14.51632
1104.48780  345.09146   164.00000  16.18445             12.91532
1110.24198  454.24198   405.00000  28.36646             20.07661
1107.58150  154.65198   227.00000  17.24978             16.85217
1108.88953  706.26744   172.00000  19.73457             11.49307
1108.29814  234.00621   161.00000  19.52424             10.75024
1108.26906  1522.59641  223.00000  23.06615             12.48964
1112.59615  543.67582   364.00000  23.33335             19.97498
1111.02020  634.80808   198.00000  21.39354             12.28876
1115.15714  669.55238   210.00000  20.11261             13.68057
1110.88710  656.66129   124.00000  14.10374             11.17946
1114.46190  1833.78095  210.00000  21.40493             12.68708
1112.51678  207.42953   149.00000  16.51110             11.66410
1116.62083  1170.33750  240.00000  18.52295             16.70062
1118.16406  1204.10156  256.00000  21.31931             15.85138
1115.03955  564.24294   177.00000  16.90855             13.69406
1117.08264  624.24793   121.00000  18.15938             8.80196
1113.22222  1590.75926  54.00000   9.45723              7.28970
1118.83146  128.88390   267.00000  19.27759             17.66152
1113.44444  362.86667   45.00000   8.11698              7.03031
1122.39080  1144.36782  348.00000  24.48744             18.39505
1123.94142  1105.37657  239.00000  21.18030             14.48069
1122.49618  225.30534   131.00000  15.11354             11.06458
1125.31579  645.89474   209.00000  20.59090             12.99109
1123.87649  595.36653   251.00000  26.18031             12.93096
1121.16000  708.88000   75.00000   11.75943             8.36237
1125.50685  476.84932   146.00000  14.01345             13.51707
1128.78571  686.18831   154.00000  15.53371             12.91327
1127.55435  734.57609   92.00000   13.70964             8.71241
1134.04392  1517.50338  296.00000  24.34052             16.99904
1131.42236  408.90062   161.00000  16.38202             12.54343
1131.80000  1596.08333  180.00000  16.28778             14.31710
1133.56897  714.49310   290.00000  21.92494             17.86827
1134.40940  202.39597   149.00000  16.60826             11.48775
1136.50224  507.81166   223.00000  17.79653             16.02599
1137.52917  1004.15000  240.00000  21.73563             14.32442
1136.89552  1436.44030  134.00000  15.64285             11.05864
1141.57143  369.03226   217.00000  22.14781             12.71646
1138.76289  734.65979   97.00000   13.91036             9.08369
1143.08099  116.42958   284.00000  21.12682             17.20489
1141.23874  423.24324   222.00000  21.84019             13.08302
1145.37864  477.00971   206.00000  18.75141             14.12125
1145.63043  346.63478   230.00000  18.05450             16.29545
1141.80000  556.45714   105.00000  13.25512             10.31199
1144.89222  216.96407   167.00000  17.06718             12.51019
1147.01550  237.90698   129.00000  15.38007             10.84176
1145.89474  741.53947   76.00000   13.52764             7.38139
1148.47727  539.00758   132.00000  16.48380             10.28249
1147.39231  1438.11538  130.00000  13.54850             12.35785
1151.67843  1002.30196  255.00000  18.80230             17.79544
1149.38947  1501.49474  190.00000  17.32865             14.04002
1151.26000  1135.25667  300.00000  22.35633             17.52652
1148.81818  445.21970   132.00000  15.79037             10.66996
1152.45405  551.37838   185.00000  18.60492             13.48663
1150.71354  728.02604   192.00000  18.92283             13.01035
1156.40864  154.74419   301.00000  20.89269             18.39297
1155.01562  689.12500   192.00000  16.03053             15.36288
1157.09906  669.87264   212.00000  18.70470             14.46078
1163.30556  1107.38542  288.00000  26.02332             14.22341
1157.76923  199.11189   143.00000  15.63870             11.76821
1163.31723  826.82143   476.00000  31.21396             19.75068
1156.22667  1967.64000  75.00000   10.29051             9.51121
1160.07273  658.59091   110.00000  14.69672             9.76118
1159.99301  740.85315   143.00000  16.65469             11.13345
1161.63333  620.90000   150.00000  19.46292             9.89024
1169.29365  641.23545   378.00000  26.40387             18.86060
1162.66667  1163.10053  189.00000  18.77864             13.12072
1159.64000  1880.96800  125.00000  15.76061             10.22043
1163.75362  100.23671   207.00000  17.52405             15.09219
1164.00671  247.24161   149.00000  17.06237             11.17618
1162.71852  1491.96296  135.00000  15.30311             11.24109
1167.29108  1150.87793  213.00000  20.90371             13.21738
1165.99142  542.14163   233.00000  23.32413             13.20187
1170.60733  454.53927   191.00000  19.35503             13.24126
1165.98810  727.80952   84.00000   11.94223             9.06276
1169.53061  330.35374   147.00000  15.13398             12.40555
1172.63103  1612.49655  290.00000  20.22716             18.57309
1173.03586  408.58566   251.00000  20.03232             16.11964
1170.37984  443.66667   129.00000  14.41300             11.64963
1171.20000  488.85625   160.00000  15.97094             12.79290
1171.09489  1979.91241  137.00000  14.05109             12.54805
1175.82738  501.54167   168.00000  16.63398             13.06564
1179.87600  86.27600    250.00000  22.16003             14.58150
1177.27011  352.22414   174.00000  15.79188             14.05577
1179.37624  1475.07921  202.00000  20.86562             12.62888
1177.45946  176.72973   111.00000  13.50515             10.56348
1179.25362  587.21014   276.00000  24.95271             14.52146
1184.19512  145.44512   328.00000  22.69563             18.78913
1178.70349  545.61628   172.00000  19.78077             11.56702
1185.23105  389.13718   277.00000  22.75043             15.82460
1185.09735  767.23451   226.00000  20.86013             14.52494
1182.71014  187.10628   207.00000  19.13614             14.23790
1182.08442  230.12987   154.00000  15.65255             12.57975
1182.68807  377.91743   109.00000  13.57338             10.31283
1187.21845  667.80583   206.00000  18.69217             14.26221
1183.72727  1120.38636  44.00000   8.24206              6.93732
1187.45312  206.33594   128.00000  14.82683             11.00905
1189.12022  506.96721   183.00000  16.64397             14.17062
1190.46078  491.00490   204.00000  19.95250             13.02750
1187.83673  989.44898   49.00000   9.01741              6.94687
1196.99213  1006.74803  254.00000  23.65546             14.28729
1193.60194  304.14887   309.00000  29.99961             13.26530
1198.86102  845.13898   295.00000  24.22648             15.55172
1200.60569  1095.74797  246.00000  20.95824             15.03533
1199.24409  199.91339   127.00000  12.88292             12.58969
1202.03509  990.88070   285.00000  22.81433             16.88815
1203.72222  1465.84615  234.00000  21.15325             14.34449
1203.96744  539.89302   215.00000  20.43324             14.87416
1203.92513  259.06417   187.00000  19.63518             12.30688
1206.98333  438.95417   240.00000  24.97191             12.36793
1203.72727  712.89610   154.00000  15.62110             12.61705
1212.03203  782.61210   281.00000  28.46960             12.69115
1207.59813  1630.29907  214.00000  18.91235             14.73599
1210.22047  351.37008   254.00000  20.00849             16.23736
1206.56944  1485.69444  72.00000   10.72824             8.57649
1212.00526  515.38421   190.00000  17.07420             14.35211
1213.40090  699.24324   222.00000  21.43619             13.40829
1217.86842  541.81053   190.00000  20.71809             11.87185
1221.19424  604.88849   278.00000  33.10406             11.78259
1218.26991  267.10177   226.00000  19.15555             15.51074
1219.27803  586.12556   223.00000  19.45827             15.26606
1216.69072  1052.90722  194.00000  16.92353             14.63537
1215.97761  1900.87313  134.00000  13.82279             12.55230
1220.56333  198.44000   300.00000  20.85969             18.43055
1219.46768  476.10266   263.00000  30.16148             11.86045
1220.74348  717.67391   230.00000  19.49423             15.07672
1226.51368  798.32827   329.00000  26.18759             16.38917
1222.13208  247.03774   159.00000  15.55609             13.00684
1225.93443  1039.87295  244.00000  21.35884             14.71246
1226.61654  276.81955   133.00000  13.25614             12.84914
1228.63429  661.96000   175.00000  16.24286             13.78253
1232.22881  704.37712   236.00000  21.10318             14.81239
1228.71585  356.54645   183.00000  15.96563             14.82325
1229.02674  1463.34759  187.00000  15.94392             14.97294
1233.05085  83.44068    177.00000  21.92946             11.84533
1234.66438  390.65753   146.00000  16.03604             11.61434
1237.82500  260.34167   120.00000  13.48004             11.38116
1241.31401  184.17874   207.00000  19.04317             13.89898
1248.32707  860.91165   532.00000  30.30550             24.53438
1241.07353  1466.70588  136.00000  16.13557             10.83821
1241.95000  345.73571   140.00000  14.68230             12.40108
1245.43333  411.73333   270.00000  22.74764             15.24719
1246.18855  240.84512   297.00000  21.68586             17.68990
1244.06989  325.17742   186.00000  18.47675             12.95342
1245.07107  1060.17766  197.00000  17.31781             14.67395
1247.29435  478.72177   248.00000  21.24248             15.40224
1246.15023  1637.16901  213.00000  18.73195             14.56974
1250.21134  350.78866   194.00000  25.54553             9.94089
1249.25726  543.35270   241.00000  19.67449             15.85954
1251.47410  710.23506   251.00000  20.69419             15.53415
1252.35931  1071.30303  231.00000  21.50549             13.87345
1258.18598  655.03504   371.00000  32.26501             14.85064
1251.95708  606.18455   233.00000  18.47226             16.36400
1254.42466  514.20091   219.00000  19.24175             14.82670
1253.45133  1480.56637  226.00000  19.19480             15.12485
1253.12766  393.06383   141.00000  14.57048             12.40107
1255.47191  1450.35955  178.00000  16.86018             13.51119
1254.70404  1581.10762  223.00000  19.07413             14.91647
1253.38235  272.18382   136.00000  15.24086             11.42809
1255.98485  363.95960   198.00000  17.41513             14.49335
1255.93080  1500.30104  289.00000  25.37241             15.12398
1257.58400  533.30400   125.00000  15.81305             10.16522
1265.48649  681.74775   333.00000  26.11750             17.46080
1265.63819  526.59296   199.00000  18.74892             14.22836
1270.02116  824.79894   378.00000  25.20390             19.45837
1264.86885  274.50820   122.00000  13.05984             11.90056
1266.21333  335.38000   150.00000  15.66783             12.32074
1272.40758  611.16588   211.00000  22.86584             12.25666
1269.01042  585.22917   192.00000  16.79992             14.62603
1271.48485  314.24848   165.00000  19.10583             11.13062
1272.33133  361.90361   166.00000  16.15777             13.20313
1275.65753  180.02740   219.00000  20.07386             14.09592
1275.20000  347.88205   195.00000  20.33944             12.41208
1276.59843  1461.03543  254.00000  22.75176             14.29530
1279.56439  466.64394   264.00000  23.55113             14.37510
1277.12782  493.79699   266.00000  23.34399             14.64781
1276.89048  672.02381   210.00000  18.02113             14.91786
1276.52041  419.64796   196.00000  22.07806             12.27733
1280.43460  995.90295   237.00000  18.27989             16.55441
1280.04878  384.09756   164.00000  17.55477             11.90740
1287.65665  452.76824   233.00000  21.55622             13.96316
1285.94872  193.73504   117.00000  13.17002             11.32657
1290.28968  592.61905   252.00000  21.30228             15.21514
1287.48462  1103.35769  260.00000  22.42148             14.89126
1291.26389  638.07639   288.00000  21.25584             17.68814
1296.83650  977.51711   263.00000  21.05717             16.26619
1301.71466  411.49476   382.00000  27.70624             18.29152
1294.92857  385.63393   112.00000  13.90765             10.27799
1297.93571  190.34286   140.00000  14.30722             12.46192
1301.82843  172.51471   204.00000  17.98756             14.54853
1305.74457  314.89130   184.00000  18.94000             12.43243
1313.76296  451.27037   270.00000  30.17803             11.64359
1306.94928  239.00000   138.00000  14.88633             11.83129
1311.17928  372.26295   251.00000  18.22948             17.64891
1312.20172  506.72532   233.00000  19.20128             15.53156
1311.08077  1124.50769  260.00000  23.88524             14.07581
1311.43972  252.80851   141.00000  14.11025             12.93302
1319.02652  618.25379   264.00000  26.10349             13.43860
1313.66304  346.91304   92.00000   13.85262             8.46950
1317.80000  583.84681   235.00000  18.69662             16.03373
1317.49554  1444.29018  224.00000  17.76930             16.07051
1317.48661  975.15625   224.00000  17.22498             16.60828
1320.27326  303.48256   172.00000  16.08948             13.64751
1320.83815  479.58382   173.00000  15.52162             14.32423
1323.40891  359.38462   247.00000  20.24704             15.58505
1323.80451  155.72180   133.00000  14.36716             11.86286
1328.64122  641.12977   262.00000  22.92075             15.11095
1324.84615  321.90598   117.00000  14.89373             10.02639
1329.35256  510.10256   156.00000  16.09711             12.58236
1332.90909  397.81212   165.00000  17.12120             12.49428
1333.94737  164.85526   76.00000   11.23239             8.72873
1333.28182  371.45455   110.00000  14.53068             9.63286
1334.44970  559.34911   169.00000  17.81083             12.14324
1342.45200  582.26800   250.00000  25.30806             12.68242
1336.55652  337.28696   115.00000  13.60055             10.77456
1337.67143  381.25000   140.00000  17.53727             10.53985
1341.36364  431.20661   121.00000  13.58326             11.76360
1343.50549  175.93956   182.00000  18.32846             12.83059
1344.46725  1440.64192  229.00000  19.50080             15.07099
1346.16071  650.91964   112.00000  15.24025             9.33141
1346.60833  555.05000   120.00000  13.01317             11.83342
1349.30964  947.63959   197.00000  19.29677             13.07464
1351.38554  415.95783   166.00000  15.03275             14.19129
1357.22759  402.86897   145.00000  15.28950             12.10287
1361.20937  446.12187   320.00000  25.25896             16.30785
1363.64948  925.77320   194.00000  18.69867             13.23164
1362.77064  1861.82110  218.00000  20.56249             13.63667
1359.92593  574.59259   27.00000   6.42150              5.26541
1367.62731  1806.08487  271.00000  23.41059             15.04084
1368.33010  495.99029   206.00000  19.20743             13.84974
1373.09962  368.97701   261.00000  18.51505             18.03739
1373.15736  1429.46193  197.00000  17.66690             14.22693
1375.16489  211.88032   376.00000  27.24482             17.92871
1373.78443  913.82635   167.00000  15.27121             14.01480
1378.69333  507.01778   225.00000  18.03447             15.96452
1377.93396  482.85849   106.00000  12.05405             11.18491
1376.50000  935.21739   46.00000   8.55181              6.85419
1381.84868  641.63158   152.00000  16.06024             12.14188
1385.47619  286.76190   294.00000  21.25473             17.74730
1387.38438  444.44063   320.00000  25.37846             17.01951
1386.16379  491.68103   116.00000  13.79996             10.77931
1394.46608  366.32743   339.00000  23.34711             18.82943
1394.63948  1134.30043  233.00000  24.07072             12.37242
1395.11194  510.12687   134.00000  13.65734             12.57353
1403.41573  536.53371   178.00000  16.61997             13.70163
1402.03759  893.36842   133.00000  17.49724             9.80324
1405.16026  346.15385   156.00000  16.90722             11.93239
1409.89130  240.21304   230.00000  20.20706             14.51636
1411.86262  430.30032   313.00000  26.42515             17.48476
1411.73430  897.78261   207.00000  19.88942             13.47654
1413.07362  1134.79755  163.00000  14.98787             14.00071
1419.65677  1409.49835  303.00000  33.27313             12.19495
1416.84672  501.36861   274.00000  26.49093             13.21695
1421.66667  649.18750   288.00000  26.03457             14.48658
1421.04142  1118.37278  169.00000  16.38808             13.43832
1424.90000  551.99333   150.00000  15.44823             12.48431
1424.73950  571.11765   119.00000  14.43809             10.73355
1427.97436  879.63077   195.00000  15.87996             15.67078
1432.87829  361.36184   304.00000  23.61460             16.52328
1434.68456  1431.21477  149.00000  15.43332             12.39693
1436.35622  1789.37768  233.00000  19.04251             15.70891
1436.97173  454.04240   283.00000  19.53924             18.57769
1448.60748  854.02336   214.00000  18.90731             14.49082
1455.04314  1387.96078  255.00000  23.27677             14.07000
1451.18333  315.83333   120.00000  13.56289             11.35485
1448.54839  566.58065   31.00000   6.42575              6.06314
1454.45000  876.27000   200.00000  19.12757             13.40932
1457.14563  1082.74272  206.00000  18.28160             14.45435
1454.52147  607.63190   163.00000  19.54054             10.91031
1455.65854  1448.86585  82.00000   12.68676             8.53200
1457.98113  596.11321   106.00000  12.99926             10.59090
1461.07303  630.70225   178.00000  17.13210             13.34077
1468.22500  386.50500   200.00000  27.46392             9.53533
1466.16850  405.58242   273.00000  27.31290             13.22914
1463.55556  859.81287   171.00000  17.24093             12.65421
1468.54722  1110.95157  413.00000  32.61801             17.73470
1464.82822  1126.34969  163.00000  17.53232             11.90886
1466.63208  845.19340   212.00000  16.69841             16.25221
1472.44444  286.59596   297.00000  21.75330             17.43862
1471.70787  572.76966   178.00000  20.42040             11.29510
1469.15267  306.29771   131.00000  14.27715             11.71374
1473.30258  1403.40221  271.00000  23.61052             14.72889
1473.06494  1442.87446  231.00000  19.25967             15.47182
1479.73529  744.25735   272.00000  23.90060             14.86779
1484.85405  833.22703   185.00000  18.84310             12.73808
1483.05844  639.03896   154.00000  15.07789             13.13295
1488.52471  1786.44487  263.00000  23.23960             14.43904
1484.62703  1076.88108  185.00000  18.18400             13.71657
1490.96540  769.00692   289.00000  20.31986             18.55946
1491.31111  733.30667   225.00000  20.09414             14.60102
1494.36585  783.56707   164.00000  15.82259             13.30387
1495.80899  680.78652   178.00000  16.01755             14.17433
1498.88024  794.47305   167.00000  18.73120             11.70150
1501.81143  1070.13714  175.00000  18.15967             12.37356
1500.22581  582.41935   62.00000   10.69294             7.41180
1502.96795  1084.42308  156.00000  15.25666             13.09316
1505.74877  812.68966   203.00000  18.90225             14.00480
1508.21466  836.88482   191.00000  17.74429             13.75637
1506.04412  1859.38235  136.00000  14.01489             12.71547
1511.76733  371.61881   202.00000  23.92934             10.95253
1510.72222  746.42361   144.00000  20.68739             9.15506
1511.05941  756.96535   202.00000  18.08002             14.49096
1512.60731  1644.68493  219.00000  20.93247             13.41725
1511.67727  734.75909   220.00000  17.48683             16.18016
1512.14286  292.76786   168.00000  16.08686             13.34256
1509.25000  713.38333   60.00000   10.30198             7.47338
1515.88827  846.78212   179.00000  17.28651             13.37448
1515.91919  361.21212   99.00000   12.30944             10.28369
1529.35233  713.53886   193.00000  18.61843             13.22765
1530.22289  276.24699   166.00000  17.28498             12.50304
1532.05983  1070.43590  234.00000  19.55525             15.39450
1534.02165  1452.26840  231.00000  20.11435             14.75462
1538.50169  570.51525   295.00000  23.56534             16.33318
1540.47337  848.92308   169.00000  15.59954             14.15984
1539.92632  49.32105    190.00000  18.94412             12.77065
1539.48276  838.73563   87.00000   11.85363             9.80386
1544.62842  681.27869   183.00000  20.77065             11.48685
1544.08462  1827.12308  130.00000  16.79538             9.88649
1549.60938  76.37891    256.00000  20.78431             16.05340
1549.14773  691.57386   176.00000  18.25197             12.53620
1553.06573  1139.94836  213.00000  18.07586             15.05628
1553.68093  1440.34630  257.00000  19.36911             17.10571
1553.60963  709.14973   187.00000  16.11339             14.77605
1554.79048  727.75714   210.00000  17.64900             15.22685
1557.57143  1169.91156  147.00000  16.37139             11.61465
1560.00000  574.32738   168.00000  15.17357             14.10674
1563.61885  1641.73361  244.00000  19.91609             15.76116
1564.28571  850.70089   224.00000  19.83258             14.51117
1565.61421  1125.71066  197.00000  19.77503             12.90454
1566.30000  669.17619   210.00000  16.85653             15.88820
1571.96165  277.90265   339.00000  26.68518             16.37712
1569.20388  93.65534    206.00000  18.52679             14.22353
1567.58861  1163.78481  158.00000  15.86374             12.74409
1572.20710  1706.78698  169.00000  15.84302             13.62519
1573.55319  1737.73936  188.00000  16.10115             15.03059
1577.95968  1067.10887  248.00000  20.81791             15.48816
1576.90811  1091.34595  185.00000  15.96496             14.82218
1576.80952  732.22857   210.00000  18.32601             14.81691
1579.51131  163.94570   221.00000  18.05851             15.62034
1585.14953  865.94393   214.00000  18.30540             14.94350
1590.51977  734.01130   177.00000  16.06871             14.14623
1592.03723  1212.15957  188.00000  17.38105             13.94294
1596.91707  195.41463   205.00000  22.45003             11.85209
1599.69580  1616.83916  286.00000  24.08661             15.53646
1597.76824  1564.01288  233.00000  20.17216             14.83004
1604.75000  698.71698   212.00000  18.99427             14.26542
1605.06806  878.26702   191.00000  17.45575             13.97711
1605.51953  1080.85156  256.00000  22.21938             15.18850
1605.38140  1600.06977  215.00000  19.83115             13.88874
1613.90110  267.76557   273.00000  19.98961             17.53350
1616.83854  1638.13542  192.00000  23.13259             11.14703
1616.51948  1210.62338  231.00000  20.70160             15.50448
1615.97203  1500.34266  143.00000  16.22397             11.24225
1620.74757  863.44175   206.00000  18.38964             14.33475
1621.67299  1069.92417  211.00000  20.65723             13.31454
1620.60153  1466.66667  261.00000  29.47890             11.44544
1619.83562  1682.85616  146.00000  15.29288             12.22595
1623.79186  629.47964   221.00000  19.01400             14.86938
1624.70352  644.21608   199.00000  19.78410             12.92280
1628.76030  664.71161   267.00000  22.41670             15.51288
1631.55738  567.64918   305.00000  25.30110             15.89132
1623.72093  1657.76744  86.00000   10.79693             10.17125
1630.24074  686.09722   216.00000  18.45634             15.01566
1630.22162  878.73514   185.00000  17.22274             13.73804
1629.15447  1561.19512  123.00000  14.98960             10.60200
1632.70286  1442.20000  175.00000  17.09175             13.19186
1645.19808  1082.98722  313.00000  26.96054             15.26133
1640.39615  1679.38462  260.00000  20.36249             16.49985
1639.03529  1551.22353  85.00000   11.15069             9.71211
1646.68889  1228.72889  225.00000  22.09827             13.54891
1649.64217  1561.82428  313.00000  21.71775             19.61469
1649.01717  265.83262   233.00000  19.60031             15.40057
1649.50000  894.17021   188.00000  21.36859             11.34491
1650.51822  1414.14170  247.00000  19.07403             16.60644
1656.94037  886.11009   218.00000  24.93465             11.52714
1655.48325  1607.97608  209.00000  17.84217             14.96335
1658.31746  1667.13492  126.00000  13.72501             11.76784
1661.97788  648.29204   226.00000  17.77950             16.24275
1667.85463  1068.57709  227.00000  18.05365             16.18268
1668.54950  1436.40099  202.00000  17.82210             14.59278
1670.51781  1516.22192  365.00000  24.96225             19.31584
1678.47805  667.59512   205.00000  19.30730             13.57877
1679.46185  1474.97590  249.00000  21.31930             15.08720
1685.86473  1641.71981  207.00000  18.54244             15.51378
1686.83051  285.30085   236.00000  18.68244             16.21176
1687.62802  1078.41063  207.00000  17.81186             14.84704
1695.62879  558.06061   132.00000  20.13094             9.27017
1697.33600  660.79200   250.00000  18.95330             16.82289
1697.45946  1666.44324  185.00000  16.02616             14.70992
1700.63636  1063.61157  242.00000  21.20039             14.55331
1711.20270  1537.66216  148.00000  14.26552             13.28525
1712.50641  1524.85897  156.00000  14.40758             13.81935
1718.11524  635.87732   269.00000  22.22240             15.66144
1725.42537  1075.63060  268.00000  28.14652             12.45923
1722.33113  1572.80132  151.00000  16.59210             11.64309
1723.72358  1546.33333  123.00000  13.28004             11.79870
1732.25907  1060.96891  193.00000  19.09511             12.91693
1747.33462  644.18846   260.00000  21.50775             15.53294
1748.63158  885.73684   285.00000  29.73564             13.45270
1749.48430  622.34081   223.00000  19.43508             14.60583
1750.65714  778.25238   210.00000  18.90847             14.23705
1751.58537  1700.26829  82.00000   11.32949             9.41373
1757.89851  739.97910   335.00000  22.09481             19.67876
1761.12069  757.43966   116.00000  12.86357             11.50245
1764.23188  815.07246   207.00000  18.59214             14.34080
1773.44928  1526.16425  207.00000  20.17631             13.13179
1778.50877  1440.78947  228.00000  17.29366             16.92734
1780.88889  1630.67901  243.00000  19.18231             16.26641
1787.69787  614.49362   235.00000  21.80721             13.77159
1787.61574  857.98611   216.00000  21.49566             12.87031
1788.14943  841.20690   174.00000  16.83925             13.17940
1786.76744  814.84496   129.00000  13.71588             12.06269
1790.47191  1410.39326  178.00000  16.46942             13.82155
1808.00262  1052.29659  381.00000  38.31898             14.98000
1796.89302  1439.57674  215.00000  21.19896             13.23073
1803.79939  533.13070   329.00000  28.87921             14.79479
1797.92857  785.90000   70.00000   11.85320             7.56327
1800.59722  1379.71296  216.00000  20.52845             13.60018
1801.63758  825.40940   149.00000  15.15321             12.78473
1804.58586  1653.58081  198.00000  17.09580             14.74757
1805.22581  1478.25806  93.00000   12.08723             10.13332
1809.50820  855.01311   305.00000  25.48162             15.39623
1810.78462  1461.77692  130.00000  13.76730             12.04351
1817.91667  1636.37917  240.00000  22.12079             14.01639
1819.12766  589.21702   235.00000  19.14648             15.65988
1821.81250  1450.06250  208.00000  16.69316             15.95975
1826.83333  1333.56944  144.00000  16.24485             11.64402
1830.43568  750.87552   241.00000  21.64097             14.29802
1834.92857  422.06723   238.00000  20.88649             14.56035
1835.25510  1302.42857  196.00000  17.60053             14.16652
1838.10145  1448.12319  138.00000  15.30761             11.51911
1842.22449  569.56633   196.00000  17.88245             14.16788
1842.43889  591.33333   180.00000  17.22740             13.33172
1847.41985  849.82824   262.00000  23.56303             14.19907
1843.01111  1628.65000  180.00000  16.09718             14.29790
1850.98983  293.00678   295.00000  20.07944             18.92179
1850.01124  1292.87640  178.00000  18.54874             12.33844
1850.39286  1421.87857  140.00000  15.28297             11.78182
1854.36321  784.63679   212.00000  17.05383             15.87338
1859.21078  759.89216   204.00000  20.26058             12.91845
1863.85841  1052.51327  226.00000  23.53387             12.32854
1861.72477  1533.16514  109.00000  13.68253             10.51615
1867.52482  414.36879   141.00000  15.39869             11.69042
1871.98745  462.00837   239.00000  24.04309             12.76508
1875.68750  559.87917   240.00000  20.07352             15.34681
1877.20231  1575.94220  173.00000  15.96950             13.86269
1883.90435  699.82609   230.00000  24.48700             12.29633
1881.40090  839.91441   222.00000  21.85838             12.98475
1882.90411  786.56164   219.00000  17.23409             16.18506
1888.17597  1405.43348  233.00000  18.42538             16.11784
1893.63279  1069.47213  305.00000  20.98703             18.83241
1896.28704  409.87963   108.00000  14.66445             9.53726
1906.05941  1566.95545  202.00000  17.89578             14.51696
1910.45405  675.62162   185.00000  20.99735             11.44896
1912.64015  792.92803   264.00000  22.57530             15.12237
1909.63265  1454.98980  98.00000   12.16683             10.34168
1918.25472  828.82075   212.00000  18.45810             14.68959
1924.87500  414.03289   152.00000  15.95839             12.38885
1932.29412  807.45588   272.00000  26.61953             13.94053
1938.43094  780.79558   181.00000  17.48357             13.54632
1946.94309  660.65041   123.00000  14.80911             10.83581
1953.68980  693.51020   245.00000  22.20369             14.57877
1953.41040  1082.20231  173.00000  18.38509             12.00783
1961.72222  663.51389   144.00000  15.70789             11.68200
1965.62105  645.58947   190.00000  18.08001             13.87740
1965.64972  624.96045   177.00000  15.98086             14.14621
1973.11565  611.09524   147.00000  14.00760             13.55862
1982.97156  653.49763   211.00000  19.17061             14.14886
1983.81395  679.63721   215.00000  18.48400             14.83486
1986.83495  922.00971   103.00000  12.72360             10.64168
1992.45503  477.68783   189.00000  16.54757             14.61441
1994.86957  871.76630   184.00000  15.66938             15.01950
2002.82787  711.22541   244.00000  20.62149             15.36095
2002.50410  851.18443   244.00000  20.20449             15.47991
2000.54430  893.53165   158.00000  15.88658             12.70601
2014.64463  589.35950   242.00000  23.14057             13.40022
2015.77917  274.32500   240.00000  23.19879             13.89289
2022.88830  826.37234   188.00000  17.69392             13.53313
2038.30822  817.34932   146.00000  15.76750             11.92539