# Filename: Nuclei_416_bidi_016.npz
# Voxel size (nm): (108, 108)
# Area quantity: voxels
# Num nuclei detected: 219
Y           X           AREA       MAJOR_AXIS_LENGTH    MINOR_AXIS_LENGTH
48.08743    579.70492   183.00000  18.46820             12.68234
50.88679    647.06132   212.00000  18.08342             15.01346
55.73410    667.95087   346.00000  24.96298             17.96603
60.13478    601.53478   230.00000  18.67719             15.76238
63.06596    691.15831   379.00000  28.11668             18.40472
57.70909    614.78182   55.00000   10.21438             6.90888
69.14451    711.35260   173.00000  17.39946             12.69834
82.19231    750.17582   182.00000  20.06683             12.03726
85.39485    728.34335   233.00000  18.06261             16.53001
97.73988    768.16185   173.00000  15.92669             13.96302
105.09810   804.46519   316.00000  20.40791             19.88707
354.25225   618.21622   111.00000  12.58281             11.25849
424.63014   633.36986   73.00000   10.87355             8.84056
435.68354   730.63291   79.00000   11.33875             8.94022
447.95349   645.79845   129.00000  17.31976             9.92336
455.37234   806.20213   94.00000   13.17798             9.08476
466.32584   762.55056   89.00000   13.74338             8.29702
476.63014   660.79452   73.00000   10.17673             9.15513
484.31169   742.71429   77.00000   10.71922             9.22188
490.52308   752.20000   65.00000   10.30211             8.20429
495.02000   820.63000   100.00000  12.55046             10.29802
498.35971   839.27338   139.00000  14.69505             12.09844
496.92941   801.49412   85.00000   12.59641             8.63253
506.43750   798.76562   64.00000   10.88622             7.56960
516.91346   764.99038   104.00000  12.70851             10.46180
537.39130   774.79710   69.00000   10.73958             8.25951
565.91781   601.81507   146.00000  15.34688             12.18056
571.50000   735.37179   156.00000  16.83530             11.85389
586.11348   759.53901   141.00000  15.25229             12.00069
593.95161   578.23387   124.00000  13.76124             11.50762
607.24561   716.71930   114.00000  13.35529             11.35889
612.27007   744.26277   137.00000  14.45433             12.14321
613.54701   1278.97436  117.00000  14.10201             10.62622
626.00714   730.67857   140.00000  15.65317             11.37208
629.78571   557.45714   140.00000  13.72232             13.08727
631.53659   692.11382   123.00000  12.99400             12.09719
647.76562   740.89844   128.00000  14.25967             11.54309
648.91935   1261.11290  62.00000   10.92750             7.18586
661.82836   683.76119   134.00000  13.61776             12.61282
669.74272   1155.96117  206.00000  18.51833             14.41102
670.60819   536.25146   171.00000  15.51571             14.09759
671.72131   1249.92623  122.00000  16.18509             9.75393
677.59341   1124.20330  182.00000  19.20335             12.15522
687.83755   657.67148   277.00000  23.38022             15.24420
689.83784   1081.79537  259.00000  23.26183             14.69185
700.79710   524.89130   138.00000  15.19735             11.58541
708.74672   1167.47162  229.00000  19.02740             15.41882
722.37063   1053.41958  143.00000  14.66407             13.49771
723.57672   1109.26984  189.00000  16.75617             14.39220
726.33684   1248.14737  95.00000   13.87188             8.78861
730.23780   1151.60366  164.00000  21.28458             10.53390
734.64179   619.01493   67.00000   10.08475             8.49948
738.67143   503.01429   140.00000  15.09239             11.87448
739.16774   1072.75484  155.00000  17.09701             11.58683
740.95109   1090.12500  184.00000  15.76373             14.90547
749.92896   1047.14208  183.00000  16.10509             14.56335
755.86508   518.31746   126.00000  13.73853             11.75206
757.66255   605.26749   243.00000  18.04105             17.27192
757.26613   1234.83065  124.00000  14.07031             11.29867
765.82394   503.39437   142.00000  14.01327             13.04258
764.50000   874.00000   18.00000   5.54259              3.99328
773.21196   1024.66848  184.00000  19.11056             12.36248
776.99492   996.62944   197.00000  20.22850             12.45097
799.74020   1030.70588  204.00000  20.05873             12.96628
802.43333   1219.17500  120.00000  12.67299             12.04578
810.62598   1239.88976  254.00000  20.77179             15.93854
812.81290   951.79355   155.00000  15.89972             12.56707
827.42424   1191.46667  165.00000  15.55857             13.74057
839.32900   1175.40260  231.00000  17.72688             17.02695
840.75275   1127.39560  182.00000  17.00729             13.63640
840.16949   943.32203   59.00000   10.10380             7.41490
854.13514   1184.21622  222.00000  18.10819             15.81393
852.10067   1263.42953  149.00000  15.20076             12.53922
854.54751   1008.38914  221.00000  18.70341             15.42269
856.87647   1021.77647  170.00000  18.43296             11.92846
860.40784   1289.59608  255.00000  22.77037             14.75457
866.91753   1094.37113  194.00000  19.11993             12.95003
872.97080   997.28467   137.00000  15.36109             11.72606
879.07065   1166.64130  184.00000  23.74310             10.11007
885.36601   1000.99346  153.00000  16.12306             12.31693
885.87440   1268.99034  207.00000  18.98202             13.98720
886.16908   1057.51208  207.00000  19.60329             13.60610
890.60714   1141.40306  196.00000  17.42560             14.44533
894.42793   1293.67568  222.00000  20.15015             14.51523
897.51442   1081.92788  208.00000  20.82402             12.89174
901.48558   1127.52404  208.00000  20.00095             13.45460
899.73885   826.68790   157.00000  14.88246             13.53891
902.35676   1063.35676  185.00000  18.46906             12.88240
902.30088   812.24779   113.00000  14.78233             9.78027
905.74863   1097.90710  183.00000  15.91585             14.65546
921.59259   866.97531   81.00000   11.71488             9.02930
931.91057   1223.84553  246.00000  20.81268             15.31928
932.35938   1136.56771  192.00000  18.51300             13.33713
933.16667   886.63636   132.00000  14.55937             11.62069
936.66379   872.70690   232.00000  19.31016             15.37363
936.80791   920.64972   177.00000  17.24078             13.27496
937.10244   1003.25366  205.00000  18.88189             13.91170
940.90674   1084.31088  193.00000  18.70868             13.36802
941.85000   1070.22000  100.00000  12.23100             10.40712
948.43779   990.37327   217.00000  21.26693             13.16354
947.47009   969.84188   234.00000  19.73297             15.23068
953.08714   1328.78423  241.00000  25.78204             12.65881
955.81595   924.05521   163.00000  17.03718             12.30253
959.53419   1111.77778  234.00000  20.78636             14.45915
960.47027   949.54054   185.00000  16.00514             14.88589
967.45139   1008.64583  144.00000  14.68098             12.67024
971.96552   1184.75369  203.00000  17.53426             14.99206
978.98907   1119.62295  183.00000  20.18526             11.56899
976.65116   989.81977   172.00000  15.36533             14.26813
979.61111   1078.82099  162.00000  18.21244             11.36561
985.84181   786.53672   177.00000  17.73316             12.77997
986.47248   1349.22477  218.00000  18.23019             15.28252
996.19858   1057.25532  141.00000  16.90553             10.65600
995.40476   1073.89286  84.00000   12.39389             8.59489
1008.82812  799.10938   256.00000  21.82023             15.02793
1003.41558  1109.94805  77.00000   11.87865             8.32382
1007.22535  679.13146   213.00000  21.46727             12.78650
1011.50407  702.65854   123.00000  14.39054             11.04857
1011.48062  1094.15504  129.00000  14.81352             11.32392
1012.43443  1047.02459  122.00000  15.04188             10.35554
1017.44805  1350.53896  154.00000  15.84572             12.52380
1022.41753  1002.55155  194.00000  17.84061             13.85025
1023.00625  987.59375   160.00000  17.89504             11.38975
1029.68878  651.78571   196.00000  17.48251             14.43620
1037.57806  725.35865   237.00000  25.35430             12.85097
1037.38261  840.45217   345.00000  28.65006             15.84841
1035.64286  710.26190   42.00000   8.02191              6.67163
1045.57917  1359.19167  240.00000  24.88140             12.61590
1057.35385  635.75385   195.00000  19.31528             12.88643
1060.65313  971.68438   320.00000  24.86947             16.97911
1059.70060  1052.37126  167.00000  16.87139             12.81108
1056.83740  749.95935   123.00000  14.39013             10.92562
1059.95152  1100.47273  165.00000  16.14675             13.18986
1063.75940  792.74436   266.00000  20.98910             16.22251
1060.65714  855.05714   35.00000   7.12372              6.22480
1071.01015  869.73604   197.00000  18.62268             13.66228
1076.24638  822.93478   276.00000  19.73261             18.20231
1075.74302  616.43575   179.00000  19.43666             11.86793
1075.06364  1094.07273  110.00000  13.37550             10.52794
1078.16071  1388.78125  224.00000  19.17643             14.90494
1076.15108  772.59712   139.00000  14.17156             12.48667
1088.11483  771.10048   209.00000  21.34943             12.53442
1095.28947  675.02193   228.00000  20.09392             14.82086
1094.72727  1067.10160  187.00000  17.56107             13.55627
1096.07097  1015.54839  155.00000  15.27814             12.95285
1097.09434  831.22642   53.00000   8.92525              7.61205
1104.92593  753.96759   216.00000  22.61566             12.62205
1102.26816  794.70950   179.00000  16.14483             14.35057
1105.41279  1397.50581  172.00000  21.79971             10.17975
1116.76125  1078.60554  289.00000  24.40561             15.37341
1112.24500  682.19000   200.00000  21.06371             12.43149
1113.61314  1036.91971  137.00000  15.03204             11.62836
1119.35849  860.44340   106.00000  13.95113             9.69798
1121.07904  988.07560   291.00000  24.17712             15.54389
1123.73303  1026.57014  221.00000  21.44339             13.31868
1123.47826  1419.43961  207.00000  19.16406             13.88763
1122.42400  725.23200   125.00000  13.48339             11.81442
1127.75839  957.89262   149.00000  19.23217             9.86954
1128.42775  825.29480   173.00000  17.53282             13.27887
1136.49425  1106.70115  261.00000  24.15898             13.96445
1137.23077  756.83916   143.00000  15.23669             12.12423
1134.23288  812.38356   73.00000   10.74071             8.65735
1136.17213  854.91803   122.00000  14.20580             11.11374
1136.06186  886.07216   97.00000   12.19306             10.18434
1136.56667  920.23333   90.00000   11.73521             9.83013
1149.34000  1051.78500  200.00000  18.89564             13.61637
1155.66220  994.20643   373.00000  22.98079             20.87504
1156.29348  828.99457   184.00000  15.99028             14.68132
1156.01786  744.68750   112.00000  14.80325             9.66639
1155.92920  773.89381   113.00000  16.57088             8.94300
1157.50769  756.73077   130.00000  15.68199             10.75563
1166.35039  1122.75591  254.00000  25.08109             13.33360
1172.06180  1040.96067  178.00000  15.66536             14.47487
1174.39796  823.34694   294.00000  23.85286             15.91889
1180.95455  895.60227   176.00000  17.13509             13.21869
1189.27459  1048.03279  244.00000  18.00660             17.42377
1189.37500  737.43750   176.00000  17.99329             12.46529
1203.36299  968.82206   281.00000  27.02805             13.57075
1202.59756  906.79878   164.00000  15.28638             14.01966
1206.12500  1132.48661  224.00000  18.55547             15.42768
1216.22072  744.18018   222.00000  20.59690             13.79059
1219.31818  988.01748   286.00000  22.86464             15.99311
1228.63964  961.83784   111.00000  14.90909             9.62423
1232.50450  929.40541   111.00000  13.91811             10.27629
1244.76147  1154.86697  218.00000  21.55734             13.39573
1256.89806  1143.66019  206.00000  19.43513             13.51553
1271.56872  722.06161   211.00000  21.52058             12.54786
1269.27957  739.45161   93.00000   13.50137             9.03252
1286.79464  1158.87946  224.00000  17.66457             16.26078
1284.55556  730.50000   72.00000   12.08270             7.58383
1299.16544  997.97426   272.00000  26.17744             15.14049
1294.00000  717.24390   41.00000   7.23137              7.16525
1312.25946  1147.83784  185.00000  19.99356             11.97713
1316.74096  729.39458   332.00000  23.26218             18.48817
1337.84466  1135.77184  206.00000  18.28604             14.60462
1347.07647  713.04706   170.00000  15.99300             13.63044
1354.71622  1011.40541  222.00000  24.81427             11.76691
1420.91304  1011.21196  184.00000  21.83029             10.82221
1460.30627  985.21033   271.00000  23.03116             15.03425
1538.04286  874.65000   140.00000  13.95504             12.88006
1569.66129  986.41398   186.00000  16.22031             14.75905
1599.50299  975.92814   167.00000  19.20481             11.11412
1613.25912  838.05474   274.00000  24.94105             14.27584
1636.72000  966.99500   200.00000  16.74930             15.23306
1665.94203  800.34783   207.00000  22.06588             12.31770
1670.26016  780.89431   123.00000  13.83169             11.47673
1670.31481  939.96296   162.00000  17.64748             11.80691
1687.63636  913.74545   165.00000  18.30497             11.57663
1691.43697  883.55462   119.00000  13.85744             10.97872
1700.83744  845.41872   203.00000  20.21992             12.85868
1703.54605  896.65789   152.00000  16.59493             11.71444
1741.26087  887.83230   161.00000  18.22814             11.24365
1773.25333  965.42667   75.00000   10.47168             9.19733
1781.54187  992.51232   203.00000  19.51825             13.46305
1780.08511  834.50000   94.00000   11.74686             10.30708
1785.07317  1028.55691  246.00000  21.63347             14.77810
1789.79503  928.26087   161.00000  15.25387             13.51486
1801.43103  830.44828   116.00000  13.40804             11.15264
2000.20000  1907.08000  25.00000   5.98240              5.30174