# Filename: Nuclei_416_ctrl_009.npz
# Voxel size (nm): (108, 108)
# Area quantity: voxels
# Num nuclei detected: 992
Y           X           AREA       MAJOR_AXIS_LENGTH    MINOR_AXIS_LENGTH
8.58721     1400.88953  172.00000  21.84472             10.35546
2.20408     1886.42857  49.00000   10.06395             6.45942
28.87805    1833.02439  164.00000  20.00062             10.78938
32.70356    1806.52569  253.00000  26.81948             12.56423
34.26891    1712.11765  238.00000  22.72405             13.41842
38.10036    358.57706   279.00000  24.77115             14.55767
36.75882    1658.56471  170.00000  18.36317             11.91375
48.90204    1647.25306  245.00000  21.57758             14.59680
71.36254    1108.37764  331.00000  25.78592             16.62945
77.37500    1815.49432  176.00000  21.69000             10.88045
87.06167    414.22467   227.00000  21.25280             13.65774
92.15000    395.28889   180.00000  16.61080             13.83022
102.58798   409.13734   233.00000  22.83174             13.37935
107.63636   1803.06198  242.00000  22.89776             13.51318
104.17419   1915.21935  155.00000  15.86419             12.48798
109.19672   373.75410   244.00000  20.01160             15.82015
113.95730   46.77528    445.00000  32.63701             18.00929
109.99415   1935.57310  171.00000  17.58422             12.45606
116.70817   246.03502   257.00000  22.99457             14.41303
117.39810   1895.16114  211.00000  21.38951             12.67202
119.53846   337.80288   208.00000  18.12091             14.62304
127.37173   1671.30366  191.00000  21.68059             11.23121
127.28718   318.04615   195.00000  16.81763             14.87722
132.18269   448.77885   312.00000  25.92377             15.53410
135.89316   297.23504   234.00000  20.40233             14.71942
150.35556   417.65278   360.00000  25.11348             18.37345
150.26389   1934.77315  216.00000  18.07416             15.26488
154.68835   1500.59621  369.00000  25.69417             18.43803
155.51389   1871.12500  216.00000  22.92322             12.10352
157.52604   128.01562   192.00000  20.25384             12.16623
164.50182   1059.21091  275.00000  24.79305             14.21997
164.35526   2004.38816  152.00000  15.25102             12.75384
184.34574   992.13564   376.00000  32.74572             15.82147
179.67619   357.29524   315.00000  25.11700             16.04816
184.29537   1122.12456  281.00000  25.56194             14.12413
184.01075   232.79570   186.00000  23.06902             10.60585
191.02920   638.81022   274.00000  32.42933             11.71983
192.60000   621.04000   125.00000  15.96559             10.11544
195.38542   590.10938   192.00000  22.76336             11.32894
203.02981   520.35772   369.00000  28.48378             19.31089
200.59924   562.35115   262.00000  20.12609             16.66878
201.67347   1869.40136  147.00000  19.03001             10.10676
206.94924   483.75888   394.00000  30.31159             16.96794
213.37267   1544.00621  322.00000  29.63470             13.99765
213.84211   1941.20433  323.00000  22.38156             19.11328
220.75185   1661.44074  270.00000  25.64562             13.48419
222.84838   1587.49097  277.00000  24.95354             14.29695
224.46038   306.80755   265.00000  31.60091             10.80997
232.02579   988.29799   349.00000  30.71963             14.52422
227.01176   471.60784   255.00000  19.82666             16.43865
233.48210   367.61098   419.00000  34.60142             15.95100
230.57836   441.75000   268.00000  26.15941             13.38596
235.89000   1842.64333  300.00000  25.31877             15.14500
246.20253   1808.92405  237.00000  19.60445             15.58092
245.26246   83.87708    301.00000  24.36061             15.84081
252.01010   1830.90909  198.00000  18.04103             14.16937
266.67059   862.87059   255.00000  26.60637             12.36040
281.87853   1000.14689  354.00000  40.12852             11.35416
276.12727   1014.95909  220.00000  24.64948             11.36697
277.27953   1751.91339  254.00000  25.93597             12.63551
301.47279   990.19728   294.00000  37.23086             10.35317
304.22593   1677.55185  270.00000  23.31822             14.78416
313.11330   343.47783   203.00000  18.62489             13.90729
319.63158   394.27303   304.00000  23.35542             16.81641
325.93706   1692.00350  286.00000  20.10440             18.23702
328.63665   329.86025   322.00000  20.56725             20.04478
328.60209   1019.85864  191.00000  20.46290             11.94876
337.07968   1650.68127  251.00000  24.01422             13.74602
344.59211   432.93092   304.00000  24.94492             15.67808
351.66532   995.61290   248.00000  37.98111             8.56214
357.75301   376.98494   332.00000  23.49038             18.06396
363.89306   1320.68668  533.00000  35.29333             20.01493
365.93373   303.21988   332.00000  22.26255             19.03624
376.93478   1006.96377  276.00000  30.38778             11.75970
373.66822   1361.07009  428.00000  33.57279             17.22636
384.06812   597.31335   367.00000  31.99642             14.91339
382.94422   1421.01992  251.00000  18.94340             16.98300
398.94167   1412.31250  240.00000  22.29841             13.79966
403.48624   858.05505   327.00000  28.04617             14.89914
398.23077   1140.39161  429.00000  42.64179             13.51658
404.79352   1425.23887  247.00000  24.77971             12.97828
410.26718   1231.88550  131.00000  14.53561             11.62805
417.18841   502.22319   345.00000  30.59198             14.71173
418.45143   956.75429   350.00000  34.29098             13.50446
423.83172   415.04854   309.00000  25.89425             15.24471
419.68056   1209.88889  288.00000  23.33073             16.01257
420.49123   1939.47807  228.00000  20.63726             14.12934
422.54717   810.06792   265.00000  29.18542             11.71919
430.70852   919.77578   223.00000  22.22138             12.86465
439.76571   355.08571   350.00000  32.53437             13.88583
434.41418   758.91418   268.00000  21.94329             15.66590
442.33875   448.98645   369.00000  32.64556             14.72293
438.51636   1238.36364  275.00000  21.30283             16.49849
440.82969   811.51965   229.00000  21.90220             13.54461
441.12585   953.24150   294.00000  26.11744             14.38485
456.96419   1120.95317  363.00000  37.32894             12.90584
451.44068   909.71525   295.00000  27.13289             13.89787
452.72131   1771.42295  305.00000  28.73472             15.17920
455.50769   1411.73846  65.00000   10.27151             8.09468
459.35780   1418.66972  109.00000  15.04486             9.42502
464.76014   848.31081   296.00000  33.80515             11.33708
463.42690   887.59357   342.00000  23.84751             18.59149
471.50725   1005.79227  207.00000  39.71492             6.71756
467.30620   765.82946   258.00000  22.64045             14.89142
468.33441   101.43730   311.00000  22.85734             17.41710
470.22318   833.25751   233.00000  27.38962             11.28418
470.89170   230.49097   277.00000  20.41766             17.35212
467.36207   1402.07759  116.00000  14.07009             10.55581
468.86667   1421.98667  75.00000   10.64351             9.19865
481.73636   1986.55455  220.00000  20.96474             13.39647
483.33955   1859.89552  268.00000  19.28926             17.73926
489.69364   549.36127   346.00000  27.47820             16.63951
484.48529   910.46569   204.00000  17.73854             14.80290
491.83385   691.47077   325.00000  28.43751             14.69349
492.36879   409.48227   282.00000  20.17341             18.07356
489.95238   900.01429   210.00000  34.22679             8.35814
491.43388   841.96281   242.00000  17.91338             17.25388
492.57895   1873.67105  228.00000  18.39563             15.81410
494.40357   1932.14286  280.00000  25.00865             14.30008
493.24306   985.93750   288.00000  26.52356             14.61141
498.77253   867.70815   233.00000  26.02415             11.62668
506.31224   1398.15612  237.00000  26.27814             11.68209
502.58491   1588.18113  265.00000  22.79110             14.89488
503.06615   1242.81323  257.00000  21.13708             15.66690
505.27953   1045.04331  254.00000  22.63148             14.43696
508.62105   1083.38947  285.00000  24.09004             15.20797
506.21711   778.54605   152.00000  18.04980             10.91815
509.86296   1417.61481  270.00000  21.28456             16.17121
513.35057   894.07471   174.00000  23.37561             9.86034
515.56957   2023.37391  230.00000  22.53883             12.99030
529.00674   332.53034   445.00000  39.22753             14.64605
520.57303   860.82022   178.00000  26.18744             8.91646
520.13308   1878.79468  263.00000  19.83803             16.92447
521.42077   1045.34973  183.00000  18.28402             12.76128
523.87291   1581.69231  299.00000  21.61483             18.05536
528.50700   971.15966   357.00000  32.08495             14.28586
528.82625   955.39768   259.00000  25.10157             13.22138
528.88390   585.76030   267.00000  21.96690             15.71963
537.07805   197.31707   410.00000  29.60763             17.73639
526.92000   782.20000   25.00000   5.98240              5.30174
535.93617   876.35106   188.00000  17.73723             13.60039
535.44898   737.83673   49.00000   8.74498              7.28684
545.31802   870.68551   283.00000  39.26378             9.68930
540.50213   691.31064   235.00000  21.79652             14.10770
540.29469   1900.21256  207.00000  19.95915             13.22212
541.05785   1881.31818  242.00000  20.98497             14.78241
548.69091   1003.38788  165.00000  25.15207             8.35835
551.05866   1573.00838  358.00000  29.49605             15.90490
548.79649   729.22105   285.00000  24.50679             14.89027
546.16837   780.78061   196.00000  18.57411             13.47648
559.17682   523.29666   509.00000  42.84468             16.00113
550.17358   1039.45283  265.00000  23.36162             14.51700
555.75698   1235.64246  358.00000  35.45171             13.48148
549.53725   2001.37255  255.00000  22.84050             14.51673
557.11311   1414.81234  389.00000  28.16004             17.98578
551.42021   822.38298   188.00000  17.31528             13.86057
549.25238   1924.95238  210.00000  22.30443             12.05581
559.31092   709.73950   238.00000  26.78216             11.98666
554.50704   806.12676   213.00000  19.38308             14.26052
563.71368   1016.88034  234.00000  21.07764             15.70903
561.20257   1097.36656  311.00000  23.24221             17.44342
561.36364   750.50649   77.00000   14.38971             7.04082
569.01575   1919.54331  254.00000  23.38434             13.89744
572.84828   823.83103   290.00000  22.35450             16.90632
577.61446   1403.87952  83.00000   13.86119             7.65233
581.67200   671.92800   250.00000  22.40881             14.29214
582.30918   2013.85990  207.00000  18.60289             14.47811
590.97384   536.16570   344.00000  26.40874             17.23673
587.94737   84.26006    323.00000  24.67192             16.92681
589.19412   1132.62059  340.00000  23.46450             19.13834
598.16466   980.16064   249.00000  34.82248             9.76068
592.81126   1068.59603  302.00000  27.63446             14.46037
594.95575   724.48230   226.00000  22.49195             13.04131
593.10455   885.55909   220.00000  17.32529             16.41628
596.29781   1228.57053  319.00000  23.28457             17.51071
592.03608   852.88660   194.00000  17.90800             13.87962
597.33456   809.04044   272.00000  22.50523             15.43270
597.50000   778.33019   212.00000  20.49488             13.22763
615.72000   700.99579   475.00000  46.03838             13.67305
612.99635   927.38321   274.00000  27.47018             12.78925
608.80602   825.61873   299.00000  24.33267             15.86703
611.65436   1393.98993  298.00000  23.97527             15.99742
606.55814   791.86047   43.00000   9.29145              5.90633
612.63348   771.47964   221.00000  18.61501             15.85039
615.00730   1578.23723  274.00000  21.91105             15.97434
615.36364   611.52862   297.00000  23.96108             15.93823
611.51176   942.76471   170.00000  20.78668             10.53019
620.19048   1223.79252  294.00000  20.23700             18.56402
621.06478   1410.38057  247.00000  22.28756             14.14061
620.39431   725.84146   246.00000  22.40597             14.55887
624.27642   985.20325   246.00000  23.81756             13.19565
623.35676   636.42703   185.00000  18.35382             12.92889
622.66327   941.39796   196.00000  18.07038             14.12665
628.29787   245.68085   329.00000  23.31200             18.11228
625.74621   785.97727   264.00000  26.45044             13.07330
632.54420   1065.69337  362.00000  27.88169             16.85340
632.09603   289.32119   302.00000  22.16877             17.42626
631.32258   848.35125   279.00000  23.79382             14.94818
635.02091   1174.82230  287.00000  28.97447             13.06306
633.05735   897.03584   279.00000  21.82905             16.30819
633.66279   935.34884   172.00000  19.40715             11.39016
635.37647   1030.55294  255.00000  23.91028             13.90026
641.12698   1100.61111  378.00000  33.62960             15.00483
640.58407   748.19027   226.00000  29.88421             9.77322
637.45701   638.91855   221.00000  18.40856             15.56574
645.21575   865.04795   292.00000  20.89949             18.55217
651.09172   133.31361   338.00000  26.21903             16.49356
650.95652   781.58696   276.00000  29.00945             12.20046
644.01818   738.65455   55.00000   12.03327             5.85073
651.71429   970.10204   294.00000  29.84356             12.73372
646.42188   1204.11719  128.00000  14.73705             11.09626
650.34855   1405.14523  241.00000  22.38524             13.71393
654.07035   924.96985   199.00000  19.55863             12.97231
651.47368   1188.84795  171.00000  23.08736             9.60489
653.61217   1589.82510  263.00000  18.83207             17.86624
654.48756   731.38806   201.00000  19.31878             13.47616
649.31034   915.89655   29.00000   7.46684              4.91825
654.09545   671.36818   220.00000  19.27520             14.60160
663.02536   889.57246   276.00000  34.00705             11.36766
661.94595   814.04247   259.00000  24.05978             14.00996
661.99662   472.16554   296.00000  24.58094             15.42158
661.59036   862.09639   249.00000  19.16778             16.66911
672.14731   236.73938   353.00000  27.38391             16.55163
668.68317   1178.24422  303.00000  28.80520             13.62257
667.05714   4.68571     105.00000  12.44783             10.99566
670.05641   453.02051   195.00000  17.03102             14.73804
672.11321   1231.00943  212.00000  20.97641             13.22985
675.30882   741.11765   136.00000  22.29479             8.07434
668.32759   673.24138   58.00000   10.08688             7.32629
674.50980   14.71078    204.00000  17.72387             14.93959
680.03125   903.09821   224.00000  22.41243             12.95095
680.35256   402.85897   312.00000  22.50695             17.78365
679.79245   781.20755   212.00000  21.90058             12.57900
683.83051   794.48729   236.00000  26.82491             11.29104
683.63492   993.13889   252.00000  34.03632             9.83879
681.87429   771.69143   175.00000  23.00688             9.97905
682.95122   1285.52683  205.00000  16.81185             15.56810
683.44906   865.22264   265.00000  20.99511             16.41861
684.33557   1242.65772  149.00000  18.63040             10.42698
687.80583   683.68447   206.00000  16.95589             15.52982
689.31102   820.85039   254.00000  25.71972             12.66246
697.41866   295.88995   418.00000  34.47456             15.80653
689.93631   1813.68153  314.00000  27.46517             14.87963
691.90558   840.24034   233.00000  20.01453             14.91376
691.22346   954.10056   179.00000  18.35805             12.45277
695.48428   1264.48113  318.00000  31.00157             13.24562
696.54626   669.33040   227.00000  23.25437             13.40228
694.21862   763.53036   247.00000  21.60817             14.66439
694.16502   1137.61386  303.00000  23.77841             16.68194
698.10670   633.35732   403.00000  29.69663             17.83336
696.30612   1247.47449  196.00000  22.63371             11.33180
702.66429   851.02500   280.00000  21.64856             16.68483
713.71483   981.73764   263.00000  40.61415             9.36850
702.02846   1841.16260  246.00000  20.47386             15.39385
703.99517   690.62319   207.00000  17.07450             15.61820
704.73554   816.74380   242.00000  21.44838             14.39281
703.77936   1866.90391  281.00000  26.12635             13.80042
703.74566   1976.03468  173.00000  21.71237             10.27392
704.71845   743.27184   206.00000  18.69335             14.38281
709.84452   919.62191   283.00000  20.74459             17.72359
710.11789   1290.01220  246.00000  28.46799             11.05267
719.80000   754.29615   260.00000  31.40756             10.75669
714.67553   1235.06915  188.00000  19.42976             12.34779
718.89610   1108.64610  308.00000  25.50618             15.91491
721.74088   220.13139   274.00000  19.01452             18.45460
719.04132   956.59504   121.00000  14.38813             10.92348
723.36877   1607.73422  301.00000  23.12222             16.66227
723.59211   1185.98684  228.00000  21.15825             13.87843
722.87027   1198.68649  185.00000  18.22832             12.96919
722.32877   676.02283   219.00000  17.96001             15.54642
725.06767   1211.89098  266.00000  21.76197             15.66433
724.63929   769.57143   280.00000  20.63754             17.49407
723.05000   823.14167   120.00000  14.85852             10.49746
722.83230   1920.22360  161.00000  16.68047             12.31734
729.47059   1085.57983  357.00000  30.11045             15.33422
736.01195   732.35857   251.00000  41.53717             8.39835
729.97970   785.17259   197.00000  16.84943             14.95711
728.41727   810.28777   139.00000  16.99893             10.54441
731.39732   1237.23661  224.00000  18.33644             15.98425
731.85714   1137.18634  161.00000  15.95846             12.84976
738.22754   814.32934   167.00000  16.09187             13.65956
742.78235   1248.56471  170.00000  16.40660             13.66054
746.05789   785.76316   190.00000  20.37454             11.94772
750.79585   837.29758   289.00000  32.53774             11.53305
747.68000   1024.86182  275.00000  29.27863             12.10093
746.98864   1365.71212  264.00000  20.39726             16.64657
742.92593   898.74074   54.00000   9.00955              7.62293
749.29661   704.14407   236.00000  18.72782             16.08252
748.23729   1291.01695  177.00000  19.09370             11.85195
750.38202   813.13483   89.00000   13.85518             8.45432
749.23611   915.90278   72.00000   10.13939             9.02679
755.51092   900.96943   229.00000  17.65228             16.83039
756.59729   823.19457   221.00000  20.69795             14.08043
763.66430   938.28369   423.00000  27.63269             19.74162
756.04444   949.44444   90.00000   11.69743             9.78322
759.93519   1351.43981  216.00000  18.72837             14.99422
759.86735   719.10204   196.00000  16.02833             15.71011
760.41818   914.89091   55.00000   10.45981             6.70714
772.36392   1167.48734  316.00000  32.42638             13.30377
763.98039   811.85621   153.00000  15.20824             13.00803
765.09811   1052.00377  265.00000  34.68106             9.98555
766.63068   881.61932   176.00000  16.37034             13.77290
768.17000   1219.63000  300.00000  26.49225             14.74543
768.65934   1904.02564  273.00000  25.45618             13.73606
775.89524   896.70000   210.00000  20.83308             13.21851
777.39450   1041.51682  327.00000  31.07772             13.79753
770.91882   1791.37269  271.00000  25.62718             13.60233
775.65116   250.37791   344.00000  26.35078             16.71121
774.28272   722.28272   191.00000  17.85995             13.68507
772.12255   1131.97059  204.00000  20.53569             12.80595
779.03922   736.50000   204.00000  19.75007             13.24091
778.20276   859.69585   217.00000  17.81000             15.60582
781.57438   678.00826   242.00000  22.13919             13.92713
786.61600   1300.13600  250.00000  31.44200             10.31860
777.91626   823.59113   203.00000  21.61331             12.09441
779.15493   1237.76761  142.00000  16.87974             11.01706
789.28080   663.87966   349.00000  25.88759             17.96450
785.02913   1114.15534  309.00000  22.38356             18.16895
789.18777   1204.31004  229.00000  21.05113             14.03010
791.07914   1739.92806  278.00000  25.70414             13.87531
792.95965   203.24784   347.00000  26.48056             17.19247
793.04835   1236.78242  455.00000  29.50712             20.87553
787.09375   726.06250   32.00000   7.52755              5.35097
788.42105   751.10526   19.00000   5.54470              4.29570
797.68231   843.57040   277.00000  26.71180             13.98318
800.60702   742.79298   285.00000  20.60730             17.72540
806.85769   1290.01154  260.00000  27.90528             11.96597
801.46486   1769.48649  185.00000  16.78264             14.29142
813.73077   378.49725   364.00000  28.74672             16.57829
806.99459   917.31892   185.00000  17.72632             13.56620
815.01460   735.07664   274.00000  22.48781             15.61057
818.47154   1765.05285  246.00000  22.87137             13.94287
821.77395   863.57471   261.00000  30.31967             11.39917
827.10423   1269.06840  307.00000  40.89563             10.02940
815.00000   673.88636   44.00000   8.05848              7.02850
822.51005   806.44975   398.00000  29.65248             17.70572
816.57143   764.04082   49.00000   8.62667              7.18295
821.86957   1209.58696  46.00000   9.54411              6.08592
826.20917   1598.04585  349.00000  24.97751             18.16411
825.53846   1655.21678  286.00000  23.67984             15.65807
831.41346   789.09135   208.00000  17.50466             15.20713
834.91892   1506.01351  296.00000  20.73875             18.80659
831.81818   828.80420   143.00000  18.43925             10.07378
839.59756   914.47967   246.00000  24.92919             12.77585
840.46844   957.64452   301.00000  22.78293             16.99101
840.96735   936.46122   245.00000  20.13016             15.55218
842.75243   768.07282   206.00000  17.59321             15.02670
848.05769   862.25385   260.00000  23.69550             14.08411
849.86047   885.51628   215.00000  17.85662             15.37582
854.32044   1310.86188  362.00000  33.07714             14.39455
858.18707   665.64286   294.00000  35.00474             11.18486
852.44628   776.78512   242.00000  22.72193             13.80334
854.50813   1682.87805  246.00000  21.88853             14.74674
860.56949   724.12203   295.00000  24.30008             15.48791
855.41176   818.67647   34.00000   6.99690              6.49502
863.77731   758.70588   238.00000  22.78445             13.32346
861.24873   830.45685   197.00000  17.90583             14.12943
862.28333   864.78333   60.00000   12.99918             5.99325
869.33460   1762.41445  263.00000  21.92412             15.41796
871.04745   1287.94891  274.00000  25.10208             14.37548
876.13793   745.08464   319.00000  32.75073             12.50449
875.30769   786.15385   26.00000   6.52871              5.18335
887.03364   718.54128   327.00000  28.96728             14.71715
882.84239   831.72826   184.00000  17.26359             13.89238
880.10989   842.12088   91.00000   12.86828             9.28913
893.85766   884.60219   274.00000  32.28195             10.84654
892.46084   1181.89759  332.00000  26.92288             16.07595
887.87204   1669.13744  211.00000  20.04026             14.01503
893.96117   772.78641   309.00000  26.59711             15.06602
894.76812   240.77391   345.00000  25.37880             17.54533
903.37981   1615.32212  208.00000  21.16389             12.62348
908.13265   1232.54762  294.00000  24.25766             15.70161
919.12367   922.61131   283.00000  26.83305             13.57340
913.75000   1629.59921  252.00000  23.98020             13.42524
914.78629   1686.26613  248.00000  23.08642             14.25319
924.48089   1453.84076  314.00000  26.17455             15.40154
928.53872   1928.26936  297.00000  26.41216             14.62992
921.26667   1241.48889  45.00000   9.03075              6.32940
924.87778   1572.04444  180.00000  23.84978             10.33579
927.54375   417.90938   320.00000  22.81026             18.01332
937.98446   900.22280   193.00000  30.04538             8.71069
932.38158   1576.52632  152.00000  19.69977             10.06817
934.11468   684.72936   218.00000  21.01891             13.23247
937.38077   1718.95000  260.00000  22.93390             14.63135
944.26721   1551.18219  247.00000  29.67586             10.82215
944.45076   75.55682    264.00000  21.51886             15.92025
947.76190   1631.47959  294.00000  20.69012             18.30166
950.09609   1775.51246  281.00000  24.28023             14.80791
950.09483   60.18103    232.00000  18.90444             15.78811
955.19366   883.84155   284.00000  25.55177             14.20845
955.49835   1750.53135  303.00000  26.03268             14.91937
958.09362   1713.30213  235.00000  19.92042             15.15457
961.37024   676.28374   289.00000  25.46978             14.72573
959.84722   900.15278   72.00000   12.42863             7.41650
968.65017   1648.30693  303.00000  28.12075             13.88313
963.30000   1679.45294  170.00000  16.14433             13.43054
964.05500   1575.35000  200.00000  24.43545             10.59907
970.12222   76.81111    270.00000  21.73357             15.93590
971.60586   1739.20195  307.00000  28.78290             13.71045
983.54978   892.93939   231.00000  26.06582             11.45095
985.88987   1530.11013  227.00000  19.59105             14.80850
985.55349   1761.62326  215.00000  23.17216             11.92338
983.17284   671.19753   81.00000   11.13877             9.26221
993.47573   1550.87379  206.00000  20.98809             12.54634
994.50000   1610.83577  274.00000  24.57026             14.32834
1012.05917  1790.61834  338.00000  36.23856             12.17725
1009.32701  891.81043   211.00000  22.52966             12.10717
1006.45532  1526.22553  235.00000  22.05317             13.66387
1017.12869  1752.32440  373.00000  36.40917             13.28084
1009.10000  968.06364   110.00000  13.28144             10.55361
1015.76508  1664.95556  315.00000  24.79298             16.90196
1017.28788  1142.76136  264.00000  22.95774             15.16702
1022.77353  1493.35882  340.00000  33.04405             13.23937
1018.02632  415.43421   228.00000  20.17281             14.56968
1021.23482  218.77733   247.00000  21.80518             14.51204
1019.30909  1155.40000  55.00000   8.65386              8.06362
1026.40187  1583.38318  321.00000  21.84220             19.71457
1027.83774  1978.10566  265.00000  23.37358             14.78106
1033.88636  89.41818    440.00000  28.57851             20.40612
1027.22581  867.90323   62.00000   9.13025              8.69901
1036.00373  2027.11567  268.00000  22.37580             15.29038
1040.17939  675.91221   262.00000  24.41250             13.76474
1037.42616  1431.15190  237.00000  21.23999             14.26932
1038.57627  1550.30847  295.00000  23.52997             16.04209
1040.27811  205.02959   169.00000  17.02005             12.67533
1042.62041  1499.93061  245.00000  24.05972             13.20870
1043.03891  1906.74319  257.00000  24.18362             13.56707
1047.90909  1670.02182  275.00000  24.08441             14.79624
1051.31771  1481.96354  192.00000  17.66774             13.88217
1061.52991  1614.42165  351.00000  35.02088             13.13271
1052.00000  877.00000   31.00000   7.32649              5.27930
1055.84653  70.79703    202.00000  20.04444             12.95981
1060.87197  283.46713   289.00000  21.80488             17.26542
1063.11481  1957.97778  270.00000  26.48871             13.03883
1065.57627  1422.47881  236.00000  23.54002             12.81700
1065.64164  1834.89420  293.00000  21.34096             17.56029
1065.76712  1388.93607  219.00000  18.88050             14.81699
1067.23645  1460.90148  203.00000  17.31753             14.98173
1066.96795  1340.45513  156.00000  15.43548             12.89225
1070.66803  1790.65574  244.00000  22.04802             14.16978
1067.05263  2043.96842  95.00000   14.86342             8.38968
1073.53817  891.15649   262.00000  20.67822             16.71300
1071.69643  1328.91071  56.00000   9.41833              7.55788
1076.19262  1400.97951  244.00000  21.32993             15.10317
1072.97826  1663.34783  92.00000   11.61164             10.09135
1073.36508  614.92063   63.00000   10.57879             7.58541
1077.55952  1371.44444  252.00000  19.25626             16.79791
1084.05422  546.00602   332.00000  24.89862             17.15027
1077.22857  1351.67143  70.00000   12.29062             7.32746
1082.71311  43.18852    244.00000  19.14227             16.24251
1090.16058  1594.59854  411.00000  34.95266             15.22969
1086.35678  1302.53769  199.00000  16.46602             15.50739
1087.07619  2025.31905  210.00000  17.23772             15.54706
1090.31739  669.67826   230.00000  21.12684             14.06033
1086.64634  1327.07927  164.00000  20.44841             10.28163
1089.03265  1779.95102  245.00000  20.47283             15.78451
1089.07609  1384.13587  184.00000  20.00818             11.82766
1087.54651  610.66279   86.00000   12.75936             8.77076
1093.51930  1968.14386  285.00000  22.82292             16.20565
1093.50485  617.00000   103.00000  13.41483             9.83964
1104.86455  22.29683    347.00000  33.84901             13.61215
1104.88372  143.66279   258.00000  33.25744             10.54483
1102.26238  1268.22772  202.00000  23.34148             11.15935
1100.60938  117.67188   192.00000  16.13208             15.34901
1102.50787  598.74803   254.00000  19.68122             16.59556
1101.19598  1282.78894  199.00000  16.67051             15.23297
1106.31579  662.92308   247.00000  21.53657             14.89858
1098.78182  1359.29091  55.00000   8.98952              7.79628
1103.90441  235.37868   272.00000  24.15025             14.45586
1103.41011  841.62360   178.00000  17.58001             12.98776
1104.18776  1774.88980  245.00000  23.24452             13.93143
1108.54015  1945.83577  274.00000  20.28095             17.29751
1107.30337  1963.18539  178.00000  16.64943             13.73460
1113.29658  1755.39163  263.00000  24.35027             13.81496
1120.65232  1003.32119  302.00000  29.35596             13.21926
1118.38326  1671.55066  227.00000  22.65469             12.85446
1113.45161  634.29032   31.00000   6.85750              5.70016
1120.47955  1912.65056  269.00000  25.36666             13.63571
1125.08389  1305.26846  298.00000  26.59511             14.40352
1125.56889  1983.01333  225.00000  18.42403             15.63290
1131.23353  53.17964    334.00000  23.77853             19.13819
1127.50360  1957.83094  278.00000  21.83245             16.48658
1131.37895  2025.53684  285.00000  21.40754             17.07736
1133.11180  1332.87578  161.00000  16.86412             12.20830
1133.07653  1369.22959  196.00000  17.07120             14.62610
1135.14127  2004.81163  361.00000  26.04664             17.81651
1138.20077  100.77220   259.00000  24.75648             13.54088
1135.16471  1467.23529  170.00000  16.21459             13.36731
1139.19767  1943.37209  258.00000  19.31166             17.06083
1138.02778  1239.01111  180.00000  18.36854             12.78560
1141.83071  1728.98425  254.00000  22.08815             15.16411
1142.20755  842.25786   159.00000  16.24551             12.58494
1143.34694  1286.17347  196.00000  18.46798             13.57804
1143.00000  2039.08466  189.00000  19.37548             12.64952
1151.13452  559.14467   394.00000  30.04623             17.06811
1150.67964  1617.98503  334.00000  26.12878             16.43716
1146.56354  52.94475    181.00000  18.51576             12.51444
1154.86182  161.70182   275.00000  26.69256             13.41333
1153.42017  654.41176   238.00000  24.35247             12.56946
1163.54923  831.95846   650.00000  35.83571             24.64380
1151.08333  135.82812   192.00000  16.35442             14.98997
1152.21488  1962.00000  242.00000  18.49104             16.72195
1152.84817  1249.71204  191.00000  20.61220             12.12832
1152.82313  1236.45578  147.00000  17.61128             11.05236
1153.56221  1266.80184  217.00000  19.82298             14.15776
1158.86498  1720.27004  237.00000  18.40853             16.59409
1160.93438  56.85625    320.00000  28.15618             14.86876
1171.23625  175.13592   309.00000  25.77238             15.51763
1174.23932  875.35897   351.00000  29.50175             15.56282
1163.53191  599.06383   47.00000   8.69359              6.81672
1168.29515  2028.06608  227.00000  18.10864             15.98419
1168.44485  10.64338    272.00000  21.73584             16.22269
1169.62241  1703.92946  241.00000  20.42645             15.06778
1170.64602  2007.23894  339.00000  27.17549             16.08244
1176.12234  1714.20745  188.00000  20.68724             11.96642
1178.54971  2042.28070  171.00000  20.44605             11.40039
1178.48201  1931.71942  278.00000  21.66488             16.53124
1182.89251  1865.01629  307.00000  24.95868             15.73361
1183.23276  48.70259    232.00000  19.30490             15.51876
1182.94330  1982.22165  194.00000  18.73925             13.27283
1189.26536  1474.92179  358.00000  24.26720             18.99254
1189.22353  1367.41569  255.00000  20.65738             15.79323
1187.38514  67.36824    296.00000  25.12521             15.10387
1190.69186  123.42733   344.00000  23.20775             19.04417
1186.17486  1964.38798  183.00000  18.10471             13.09358
1197.02765  1968.35484  217.00000  22.55721             12.46276
1198.52551  1211.62245  196.00000  18.49251             13.58801
1202.52697  1588.85892  241.00000  26.67706             11.80144
1198.69323  1911.55777  251.00000  25.67267             12.50181
1208.48311  1578.43581  296.00000  31.58874             12.38242
1204.14744  1223.39103  156.00000  15.99250             12.46573
1207.04891  1194.02717  184.00000  19.55253             12.03964
1206.55288  1357.11058  208.00000  19.25325             14.11746
1210.80216  1642.84532  278.00000  21.79006             17.80582
1208.75424  1941.39831  236.00000  22.69677             13.39855
1221.13826  69.53698    311.00000  24.61525             17.04768
1215.78222  1883.46667  225.00000  18.07581             15.85628
1218.34756  1221.03049  164.00000  15.17759             13.86645
1219.28455  1945.26829  123.00000  14.92085             10.62414
1225.00823  1964.01646  243.00000  20.40851             15.18113
1233.29673  118.48598   428.00000  40.75708             13.67001
1235.06752  753.07717   311.00000  33.16341             12.26952
1226.37956  1384.70803  137.00000  14.16631             12.35119
1231.47368  27.76161    323.00000  22.40729             18.42235
1227.01471  1461.98529  136.00000  15.66276             11.13924
1236.29299  548.44904   314.00000  25.93895             16.27230
1237.03344  1034.95318  299.00000  30.88920             12.61197
1227.22642  1369.01887  53.00000   9.74501              6.94326
1237.63462  507.99760   416.00000  33.94467             16.06143
1231.33333  1200.24242  33.00000   7.37767              5.70516
1236.59487  1927.36410  195.00000  19.26460             13.24812
1241.99694  1422.22630  327.00000  26.14808             16.76561
1243.13378  1585.07692  299.00000  24.03481             16.15085
1239.35326  1939.00543  184.00000  18.46084             12.88680
1240.22794  1399.15074  272.00000  24.35092             14.32038
1242.64583  1666.54167  192.00000  19.36370             12.85220
1240.02128  1202.48936  47.00000   8.81731              6.86273
1243.17000  1449.14000  100.00000  12.87684             10.08617
1249.57285  1844.60596  302.00000  24.03224             16.53859
1248.65217  1948.15761  184.00000  16.14480             14.61577
1257.34387  238.89777   538.00000  32.42605             24.81264
1252.75097  2028.84047  257.00000  18.78560             17.50879
1254.62500  1367.92188  256.00000  20.57823             15.99027
1250.76000  1478.52000  75.00000   10.46923             9.12874
1262.75877  746.28947   228.00000  28.89534             10.12456
1253.74026  1450.79221  77.00000   14.05096             7.14017
1259.60294  1187.33333  204.00000  21.25993             12.32682
1261.32192  125.43836   292.00000  23.97630             15.59835
1263.13043  594.63043   184.00000  17.89804             13.11432
1273.70168  1347.59664  238.00000  31.52029             11.48580
1268.84516  581.77419   155.00000  14.65720             13.54822
1266.30435  1365.92754  69.00000   10.51837             8.39776
1275.29811  1939.15094  265.00000  28.91946             12.40720
1268.90984  2042.65574  122.00000  13.79758             11.62222
1274.35857  1983.75697  251.00000  24.03289             13.35777
1276.48120  1855.48872  266.00000  21.38119             16.02004
1279.28315  873.50179   279.00000  21.81539             16.71121
1279.34043  1634.52340  235.00000  20.20856             14.87358
1277.29114  1882.48523  237.00000  20.59862             14.67308
1285.48548  1509.07884  241.00000  24.30321             12.84984
1287.79583  1337.55000  240.00000  23.00557             14.23973
1284.75000  49.10959    292.00000  26.98630             14.07706
1285.55747  1211.83908  174.00000  19.10399             11.63212
1280.90196  1351.70588  51.00000   9.96712              6.54255
1291.93214  421.65714   280.00000  26.77616             13.94674
1288.31203  1839.74060  266.00000  21.52451             15.77238
1289.44012  1906.61078  334.00000  24.78703             18.06730
1285.62069  589.70115   87.00000   10.70758             10.37496
1295.35345  745.85345   232.00000  21.46800             13.84979
1297.07837  842.02194   319.00000  29.00415             14.24488
1298.06774  401.51613   310.00000  24.25667             16.74248
1301.56721  1733.60984  305.00000  32.65151             12.35647
1296.68548  2032.99194  248.00000  21.66596             14.62993
1298.40864  75.08970    301.00000  23.55978             16.34705
1299.67066  262.63473   334.00000  31.45322             13.72696
1295.46512  566.06977   43.00000   10.07231             5.41618
1303.72593  1283.45185  270.00000  25.70755             13.44019
1302.39464  1881.91954  261.00000  20.87713             16.19761
1306.15000  1586.49615  260.00000  21.99084             15.33160
1305.44512  1186.20122  164.00000  17.09159             12.23594
1306.25000  1913.82246  276.00000  20.14352             17.53616
1309.33597  1208.07115  253.00000  22.70449             14.92414
1315.26697  1507.11086  442.00000  28.15089             21.24965
1304.50000  576.88462   26.00000   6.34819              5.18382
1306.06452  570.16129   31.00000   7.04115              5.65720
1315.54688  248.46094   384.00000  36.42744             14.35787
1305.96000  564.24000   25.00000   6.40249              4.89704
1313.61811  1296.88583  254.00000  19.36443             17.48038
1310.40625  2001.42500  160.00000  16.74612             12.23670
1314.37755  558.95918   98.00000   14.74396             8.52740
1316.06509  570.62722   169.00000  18.89790             11.44519
1329.50000  1406.65700  414.00000  36.32432             15.92964
1317.45545  1938.91089  202.00000  16.90608             15.25512
1318.56667  1322.27619  210.00000  19.26909             13.93389
1317.82072  1878.70518  251.00000  19.16215             16.72626
1317.25279  1984.25279  269.00000  25.41483             13.53106
1323.83030  1225.11515  165.00000  18.40212             11.55899
1322.34254  313.30939   181.00000  16.56662             13.92858
1325.15108  1855.97842  278.00000  23.11896             15.37414
1325.21939  2010.38776  196.00000  17.38865             14.78036
1325.97571  1607.70040  247.00000  21.64170             14.55705
1327.41538  1917.14462  325.00000  25.17618             16.69011
1328.55429  1178.80000  175.00000  17.86399             12.70981
1325.96970  571.51515   33.00000   7.80063              5.38052
1331.02510  1891.46025  239.00000  21.41931             14.30357
1335.57621  1148.11896  269.00000  25.64498             13.51058
1331.39241  1588.17300  237.00000  20.60100             14.84882
1334.49481  334.41522   289.00000  21.22235             17.54683
1341.32986  253.18750   288.00000  21.08457             17.52693
1347.73333  1986.24815  540.00000  37.73212             18.87819
1341.66964  1300.97321  224.00000  19.15076             14.91133
1342.60630  76.85039    254.00000  19.59675             16.55423
1344.38997  1867.23120  359.00000  23.43057             19.68580
1342.04310  1932.42672  232.00000  22.64979             13.40004
1341.03571  566.30357   56.00000   9.33256              7.68913
1345.44860  1889.22897  214.00000  17.92179             16.43973
1356.90876  361.86679   548.00000  35.72618             20.14646
1354.74719  1551.12079  356.00000  30.68785             15.66395
1346.66667  575.38889   36.00000   8.07701              5.64780
1350.52174  551.17391   46.00000   8.89040              6.64239
1363.09851  1039.98507  335.00000  35.34231             12.21516
1357.30534  1473.36260  262.00000  23.02759             14.85391
1356.16774  1211.24516  155.00000  14.98192             13.20757
1362.22152  1227.01266  158.00000  17.26559             11.69000
1359.37705  563.18033   61.00000   10.88272             7.13001
1364.48315  1883.53371  178.00000  16.97859             13.43387
1366.70745  2018.57979  188.00000  19.10909             12.55495
1373.36393  700.82623   305.00000  24.77029             15.73596
1377.79817  879.70948   327.00000  32.92108             12.68381
1369.72115  1933.01282  312.00000  26.05984             15.36552
1373.22615  1166.72438  283.00000  22.51995             16.02444
1377.44737  548.23684   152.00000  19.10226             10.19048
1382.41935  555.95392   217.00000  28.82118             9.83756
1376.74219  1984.46094  256.00000  26.55071             12.38838
1376.42308  1290.91026  78.00000   11.07395             8.96234
1380.96113  1955.99647  283.00000  21.54563             16.80111
1381.41011  1182.76966  178.00000  16.74128             13.62288
1383.49196  1443.95498  311.00000  29.00506             13.96450
1387.83014  348.30383   418.00000  30.83478             17.39179
1388.01130  1204.45763  177.00000  18.55959             12.25469
1397.36822  1836.75969  258.00000  23.85371             13.92338
1399.70040  325.56680   247.00000  20.67159             15.30856
1403.39370  545.42520   127.00000  19.31629             9.08904
1399.13274  1903.98230  226.00000  23.40802             12.35568
1406.76536  556.24581   179.00000  24.79692             10.12228
1401.34328  1964.96020  201.00000  17.39429             14.75794
1403.68900  1309.67464  209.00000  16.51168             16.19819
1406.77698  1890.88489  139.00000  15.89106             11.27511
1407.96850  1942.80315  127.00000  13.23794             12.30049
1407.58442  1679.11688  77.00000   11.31980             8.64883
1411.58929  562.83929   56.00000   10.42316             6.90464
1415.92537  1879.30846  201.00000  18.39837             14.33737
1421.08017  549.14768   237.00000  24.58935             12.60402
1421.66187  636.39568   278.00000  23.32616             15.86776
1423.83692  75.40923    325.00000  26.63049             15.62585
1424.05283  1989.15849  265.00000  20.66587             16.41559
1429.74172  1002.55960  302.00000  28.52676             13.51625
1421.47458  1300.79661  59.00000   9.47396              7.95404
1428.06410  319.64744   312.00000  23.15217             17.21878
1426.63291  1951.81646  158.00000  16.17429             12.62912
1431.09545  1215.10000  220.00000  23.74356             11.83260
1428.76786  1890.75893  112.00000  14.16086             10.10478
1435.95224  40.03881    335.00000  31.13132             13.83219
1431.20690  2036.00000  203.00000  18.25756             14.27687
1433.51832  667.23560   191.00000  16.36160             14.84973
1434.60488  1434.58537  205.00000  20.17375             13.36415
1435.97778  1444.42963  135.00000  18.88065             9.18758
1438.83862  1864.10951  347.00000  26.77443             17.21829
1437.04278  1964.70588  187.00000  19.91154             12.07018
1436.17791  561.70552   163.00000  18.17997             11.42861
1433.68000  1241.08000  75.00000   10.56924             9.02979
1436.82819  1844.36564  227.00000  17.53746             16.50611
1438.36816  1905.94527  201.00000  19.29907             13.54322
1440.69154  1892.90050  201.00000  16.53206             15.81848
1440.81915  1920.06915  188.00000  16.81898             14.45208
1443.29545  1207.30455  220.00000  20.98423             13.44550
1438.94400  1934.60800  125.00000  14.29119             11.13575
1456.86304  1030.83043  460.00000  44.38841             13.74820
1444.77320  545.92784   97.00000   14.01635             8.86534
1450.96353  1334.62614  329.00000  23.81662             18.27701
1461.30394  888.54988   431.00000  38.89707             14.20814
1457.42922  1235.29224  219.00000  24.22061             11.62375
1457.21515  1837.46970  330.00000  24.39969             17.53395
1458.59880  563.63473   167.00000  17.98124             12.04437
1457.47679  613.41772   237.00000  32.71472             9.35975
1462.06667  8.27407     270.00000  20.41153             17.00523
1463.05392  1899.77451  204.00000  16.67974             15.66014
1463.56452  680.18817   186.00000  21.58190             11.09670
1466.94688  1537.95312  320.00000  25.82368             15.83847
1473.65097  311.75346   361.00000  26.82163             17.38803
1467.04734  576.30178   169.00000  17.42870             12.36436
1465.76471  1327.94118  51.00000   8.62902              7.56999
1467.93617  652.86170   94.00000   13.54091             8.90231
1473.47863  1204.47863  234.00000  18.46497             16.11989
1470.85333  672.77333   75.00000   12.64321             7.69046
1474.93194  1225.08901  191.00000  18.33867             13.34186
1474.43373  750.65060   83.00000   12.32035             8.57946
1476.45542  632.72048   415.00000  42.03445             12.81814
1475.74737  730.81053   95.00000   12.55271             9.70253
1490.66438  1003.96575  292.00000  26.28990             14.94670
1488.15789  1343.36842  76.00000   10.68438             9.07917
1494.83482  1831.88839  224.00000  23.96498             12.01968
1498.16393  1272.32240  183.00000  23.29471             10.06461
1498.40936  771.07602   171.00000  18.06807             12.06753
1513.15548  1367.29682  283.00000  26.42544             13.72724
1516.84103  1237.97436  195.00000  21.05831             11.83950
1515.62346  1266.69753  162.00000  18.79650             11.00824
1522.47432  1682.75831  331.00000  26.64603             16.13066
1523.28794  2001.22179  257.00000  22.07628             14.90576
1532.07165  1211.24922  321.00000  28.17966             14.55451
1529.03141  1253.15707  191.00000  24.25812             10.11930
1529.61538  652.90865   208.00000  18.07710             14.66113
1533.09787  1897.82553  235.00000  23.57526             12.78665
1532.69888  816.17472   269.00000  22.86209             15.25773
1536.87649  1836.68924  251.00000  19.87704             16.23111
1539.99342  1276.78289  152.00000  14.80626             13.09957
1544.57143  647.24898   245.00000  17.87385             17.68635
1555.07862  435.82075   318.00000  26.75722             15.48924
1549.58857  1810.10286  175.00000  20.32523             11.02758
1551.93277  1779.98319  238.00000  20.01016             15.27521
1558.47645  1331.26316  361.00000  29.43495             15.84346
1556.64734  1899.00000  207.00000  17.66008             15.02418
1559.32923  803.61538   325.00000  25.61130             16.45048
1559.76491  842.08070   285.00000  25.89638             14.24582
1556.00741  1823.73333  135.00000  13.45928             12.84861
1557.48966  1924.31724  145.00000  16.47043             11.27077
1563.39689  372.94553   257.00000  19.38949             17.09487
1567.97004  1090.02622  267.00000  23.31788             14.79182
1567.16337  642.39604   202.00000  19.13337             13.46823
1566.44118  1795.88235  136.00000  16.06336             10.83774
1567.70769  1807.90769  130.00000  15.07949             11.01737
1570.79389  1281.66412  131.00000  13.24109             12.73174
1583.34465  917.55091   383.00000  33.60662             14.60517
1577.06571  1921.71429  350.00000  28.46326             16.41843
1577.49593  1803.79675  123.00000  14.21079             11.08255
1579.28509  1966.62719  228.00000  22.06968             13.22152
1587.25246  1888.87869  305.00000  24.36262             16.06832
1592.46725  755.93013   229.00000  27.96963             10.74099
1583.50758  1077.25758  132.00000  14.69144             11.47100
1584.52439  1280.33537  164.00000  16.97194             12.38795
1589.15736  1299.93909  197.00000  20.89719             12.13331
1594.44843  638.18834   223.00000  20.28069             14.17549
1599.63717  1839.37389  452.00000  35.16685             16.88203
1597.02510  1066.49791  239.00000  23.34550             13.40075
1602.34111  1614.20408  343.00000  28.45197             15.91645
1601.73510  365.37417   302.00000  25.38329             15.49219
1606.66777  1547.93023  301.00000  27.97262             13.87967
1612.05373  1207.02687  335.00000  24.47842             17.67391
1614.15328  852.41606   274.00000  22.66595             15.45087
1613.86139  2021.89604  202.00000  18.93814             13.58783
1619.17241  301.96865   319.00000  28.76298             14.20800
1619.61667  1002.75556  360.00000  24.68989             18.74958
1623.76341  1047.31861  317.00000  21.93255             19.24182
1622.08989  646.01124   89.00000   11.89040             9.55490
1633.44747  1304.00778  257.00000  23.91648             13.89636
1632.03791  625.62559   211.00000  21.63750             12.71183
1636.04433  1288.10345  203.00000  21.89362             11.83773
1637.15640  1994.86730  211.00000  20.65839             13.71367
1638.24545  2023.11364  220.00000  20.73839             13.78614
1640.01622  1888.65405  185.00000  16.92320             13.96636
1648.73518  365.11067   253.00000  25.69972             12.68502
1649.31392  387.57929   309.00000  25.36850             15.82607
1649.44928  653.67633   207.00000  21.38641             12.50528
1656.28710  851.96129   310.00000  30.47543             13.11079
1654.05723  461.92470   332.00000  23.43947             18.28133
1659.79290  406.93491   338.00000  28.79864             15.10798
1659.47043  771.23656   372.00000  29.12317             16.60958
1656.52000  328.83600   250.00000  21.46543             14.84044
1661.04787  2010.97872  188.00000  17.59616             13.69079
1666.09406  1295.90099  202.00000  24.80581             10.57070
1665.51012  113.21053   247.00000  20.13933             15.65920
1666.73826  1932.89933  149.00000  15.04657             12.64885
1667.58192  1997.84746  177.00000  18.77790             12.19503
1670.12465  353.77337   353.00000  24.38678             18.77553
1677.60455  1281.34545  220.00000  25.67710             10.94376
1676.93665  845.49321   221.00000  20.75524             13.61981
1679.12147  1579.51695  354.00000  28.87300             16.14576
1678.08497  1946.16340  153.00000  16.20216             12.11086
1679.90058  1970.69591  171.00000  15.95625             13.71537
1685.45385  332.81923   260.00000  21.51373             15.77884
1687.12450  1847.23293  249.00000  23.58943             13.66895
1687.16667  120.99242   264.00000  22.55782             15.24455
1689.50000  346.63445   238.00000  19.35702             15.77812
1690.05096  1232.30573  157.00000  16.78109             11.92617
1697.30075  842.97744   266.00000  26.40391             12.96244
1696.82558  1321.16279  172.00000  22.66797             9.71435
1697.02857  93.24898    245.00000  20.55336             15.35005
1695.48538  1958.80702  171.00000  17.21976             12.69447
1704.88583  1287.00000  254.00000  30.65085             10.81127
1696.08421  895.98947   95.00000   12.11506             10.02600
1699.64286  1982.32967  182.00000  16.53862             14.05373
1704.64423  649.02404   208.00000  21.05783             12.72169
1706.21014  1240.09783  276.00000  23.10311             15.27889
1711.28862  664.67073   246.00000  21.15056             15.14566
1718.06957  254.48116   345.00000  35.31089             12.93024
1709.95816  939.29289   239.00000  18.61383             16.59483
1708.47368  1971.63910  133.00000  14.59318             11.71900
1718.88342  1542.89896  386.00000  31.57093             15.76624
1720.49845  410.88854   323.00000  28.51937             14.46019
1723.29048  1963.54762  210.00000  18.35270             14.59686
1724.52381  1935.30159  126.00000  15.39371             10.50991
1729.15313  332.69375   320.00000  23.83089             17.22101
1732.57803  1251.88439  346.00000  25.28948             17.68227
1731.17766  125.00000   197.00000  16.89555             15.08032
1732.80083  1827.78008  241.00000  19.75359             15.59729
1733.85921  279.12274   277.00000  21.69222             16.34801
1737.15859  109.34361   227.00000  18.41372             15.80275
1744.04969  1938.64596  322.00000  25.37718             16.67270
1750.05094  753.80161   373.00000  29.00439             16.46718
1749.00000  1877.19277  249.00000  24.20106             14.14537
1751.29373  300.01650   303.00000  27.36868             14.15938
1750.31111  1320.45556  180.00000  21.21026             10.91431
1750.73333  127.89333   375.00000  23.90164             21.01580
1754.47297  1017.97748  222.00000  19.37984             14.69713
1760.40755  145.37736   265.00000  21.43771             15.78446
1760.32759  660.59914   232.00000  18.61368             15.95905
1767.00000  1140.07447  282.00000  26.10329             14.13627
1768.53175  1616.98016  252.00000  22.81723             14.19990
1774.51793  1776.77291  251.00000  33.18756             10.50226
1771.86194  168.83582   268.00000  26.21154             13.48226
1770.41909  684.87137   241.00000  19.31170             16.08741
1771.29710  133.37681   138.00000  15.19447             11.61685
1773.43842  1939.75862  203.00000  17.54927             14.83890
1773.81188  1313.23762  202.00000  17.02834             15.18375
1782.22823  1490.78078  333.00000  36.50786             12.17737
1778.35833  1638.22917  240.00000  22.63435             13.53235
1789.05498  779.21649   291.00000  26.34867             14.13487
1782.71429  1927.17582  91.00000   11.53367             10.09123
1790.64776  416.28657   335.00000  27.33609             15.76716
1790.76142  1300.94416  197.00000  16.92820             15.00417
1789.80952  807.20238   84.00000   11.63051             9.17918
1797.16667  2027.24324  222.00000  17.86154             15.91666
1797.67712  1601.01254  319.00000  27.63088             15.01365
1800.75092  1699.42857  273.00000  23.65077             14.83262
1804.84470  763.54924   264.00000  28.12666             12.17224
1804.69435  319.82724   301.00000  21.26882             18.13471
1802.31206  1309.95035  141.00000  15.60707             11.59294
1810.13208  972.84151   265.00000  23.09787             14.83176
1807.43805  1772.78761  226.00000  18.77232             15.38598
1814.05447  1647.32296  257.00000  28.30932             11.71561
1810.99482  1939.34715  193.00000  16.21052             15.16183
1814.52105  1923.10000  190.00000  19.12197             12.72354
1816.34409  1295.48387  186.00000  16.92315             14.05094
1823.17708  1682.28819  288.00000  25.28605             15.06675
1819.90783  1578.86636  217.00000  19.95740             13.96603
1823.99293  982.60071   283.00000  23.77884             15.94826
1822.13235  1899.83333  204.00000  19.72704             13.18947
1826.50000  253.52581   310.00000  21.17984             19.04758
1832.28354  849.21646   328.00000  39.09160             11.47876
1825.95359  1824.89873  237.00000  21.98281             13.86129
1830.26667  1497.75667  300.00000  24.91044             15.54515
1829.22378  1799.55944  143.00000  14.73147             12.35603
1834.05018  1175.71685  279.00000  23.39768             15.54504
1832.79464  1585.78125  224.00000  18.33632             15.65646
1835.77725  1869.45498  211.00000  19.08281             14.28372
1839.64234  1010.06204  274.00000  23.11337             15.21858
1842.55298  1611.38411  302.00000  23.89571             16.62740
1840.91579  122.96491   285.00000  20.58701             17.79454
1846.09537  1512.35150  367.00000  30.30945             15.90913
1844.42446  1064.07194  278.00000  24.81110             14.47516
1843.18667  1644.51111  225.00000  18.88244             15.24542
1842.47222  1822.11574  216.00000  19.96600             13.88387
1843.54386  1539.91667  228.00000  17.62893             16.52085
1845.51822  1575.87045  247.00000  18.78623             16.90034
1852.58442  345.59091   308.00000  31.25503             12.83741
1846.85207  1525.72189  169.00000  16.69260             13.02547
1847.28512  1841.01653  242.00000  18.06049             17.14839
1850.64793  1282.17751  338.00000  29.62110             14.83826
1847.14286  2030.50000  182.00000  23.13488             10.32922
1852.55512  1382.92126  254.00000  20.06298             16.37571
1855.71094  1812.50391  256.00000  21.38975             15.27715
1857.30380  1704.57384  237.00000  19.20267             15.77497
1868.33866  1455.78594  313.00000  30.27071             13.95442
1863.28713  1666.59901  202.00000  19.38158             13.41298
1868.84146  1137.46748  246.00000  23.58676             13.48147
1867.70635  1932.78175  252.00000  21.70627             15.12374
1864.57778  1523.97778  45.00000   8.25627              7.21082
1866.51648  1717.94505  91.00000   11.58340             9.96106
1871.06475  1698.39568  139.00000  15.06182             11.96072
1869.98658  1988.73154  149.00000  14.45664             13.12807
1876.45517  1553.89655  290.00000  22.45460             16.92502
1874.12500  1656.29464  112.00000  14.30289             9.96793
1886.67470  391.13554   332.00000  31.40264             13.61723
1886.17127  647.26243   362.00000  25.50638             18.44110
1887.45875  301.31353   303.00000  33.20936             11.87616
1885.77953  1673.20079  254.00000  21.42037             15.23869
1888.85669  1028.18471  314.00000  23.14338             17.87482
1891.39310  1004.93103  290.00000  25.87200             14.42536
1892.05440  1475.01036  386.00000  25.52287             19.82555
1891.30204  1623.71429  245.00000  21.91469             14.28747
1890.21613  1071.93548  310.00000  23.48908             16.99081
1892.62712  2017.16384  177.00000  17.51432             12.88348
1896.01493  1927.67164  201.00000  18.47056             13.90069
1902.35398  1540.38643  339.00000  25.77412             16.88263
1902.68310  1598.72535  284.00000  28.09950             12.95057
1900.23529  1986.82353  153.00000  17.54603             11.39578
1901.34286  1872.38286  175.00000  16.56029             13.48605
1902.70968  1759.62097  124.00000  13.54747             11.69696
1903.70504  1827.27338  139.00000  14.97088             11.91534
1906.72050  1642.83851  161.00000  17.21511             12.20163
1916.04386  1575.10088  228.00000  21.31523             13.68802
1923.09749  595.89136   359.00000  30.61652             15.51648
1919.61111  5.70556     180.00000  17.43493             13.18057
1922.59470  1627.86742  264.00000  23.16852             14.65382
1919.36986  1958.76712  146.00000  16.75161             11.51288
1924.53879  1648.21552  232.00000  19.86554             14.92186
1924.01500  1778.42500  200.00000  17.69844             14.42884
1922.05600  556.01200   250.00000  29.42406             11.08062
1930.44211  1132.06667  285.00000  25.88669             14.10040
1930.03468  2033.17341  173.00000  18.83167             11.81019
1935.61259  61.00242    413.00000  25.73552             20.61426
1934.15707  1735.63351  191.00000  19.57860             12.49497
1933.68900  554.18660   209.00000  17.52311             15.27933
1935.80645  1537.81362  279.00000  21.60277             16.71199
1944.34483  1496.44253  348.00000  25.63269             17.62178
1944.94545  1158.47727  220.00000  18.99484             14.90132
1955.18831  1104.10390  308.00000  26.44799             15.21525
1952.44505  1846.62637  182.00000  15.86993             14.71397
1956.77725  1689.96682  211.00000  23.27796             11.85529
1955.30374  1895.02336  214.00000  18.15641             15.23646
1956.93617  476.91915   235.00000  21.16128             14.18287
1955.82587  1762.97512  201.00000  20.90267             12.33353
1956.83408  74.19283    223.00000  18.24821             15.62434
1967.42798  371.27572   243.00000  37.76748             9.61767
1960.37591  1570.95255  274.00000  21.52919             16.25548
1962.78295  52.60078    258.00000  19.72032             16.83270
1965.31250  945.91346   208.00000  20.57224             12.93567
1965.69048  1161.24490  294.00000  21.08645             17.92648
1971.04527  773.84774   243.00000  22.61610             14.31829
1977.84049  611.37730   326.00000  29.44534             14.34133
1976.93168  1965.24224  161.00000  16.36438             12.58269
1979.15225  555.43253   289.00000  25.79645             14.41342
1991.78959  1184.35141  461.00000  44.31399             14.25116
1983.97924  1545.92734  289.00000  22.55485             16.47156
1985.59036  130.74699   166.00000  16.75245             12.61795
1987.14576  740.94915   295.00000  24.10567             16.07651
1986.84293  768.15183   191.00000  17.85818             13.62733
1987.69953  1488.74178  213.00000  17.89955             15.18666
1989.67954  1612.05405  259.00000  23.45355             14.11570
1992.90691  471.81982   333.00000  28.63392             14.89116
2000.29655  928.02759   290.00000  35.47590             10.77735
1996.48085  1762.71915  235.00000  21.00101             14.30683
1998.75373  1051.24254  268.00000  20.45677             16.79632
1999.42537  1151.97015  268.00000  19.94894             17.22795
2004.92857  1021.64286  294.00000  28.51859             13.21395
2006.72072  1139.58559  222.00000  22.99767             12.48905
2007.23885  1529.85032  314.00000  25.62166             15.63572
2009.90265  1556.64159  226.00000  19.83561             14.72901
2010.90313  422.00313   320.00000  24.65246             16.79302
2010.84181  1492.15254  177.00000  16.80793             13.72276
2018.56218  1591.92487  386.00000  33.27516             16.47702
2016.65753  978.20091   219.00000  20.72340             14.07676
2015.22530  1698.29644  253.00000  21.93106             14.70568
2021.54167  348.48718   312.00000  24.80925             16.17085
2022.08657  743.10746   335.00000  27.26280             16.13468
2023.85638  1227.65426  188.00000  22.91181             10.61301
2021.48366  1501.55556  153.00000  16.40368             12.06042
2022.68326  52.58371    221.00000  19.16845             14.74344
2025.70222  1088.47111  225.00000  20.54214             14.01212
2031.53200  1044.26000  250.00000  19.86015             16.13829
2034.04206  62.35514    214.00000  17.47873             15.84384
2032.59494  1623.39873  158.00000  16.83738             12.48156
2037.20426  616.55745   235.00000  21.41442             14.13567
2035.84181  145.32203   177.00000  16.22582             13.94650
2038.25564  870.26316   266.00000  19.87993             17.17106
2039.61081  1067.98919  185.00000  17.95545             13.28353
2038.59091  1002.15909  88.00000   12.49371             9.11078
2041.07092  1498.39716  141.00000  14.37758             12.56530
2042.39394  980.12879   132.00000  15.49387             11.28061
2042.19697  1522.41667  132.00000  14.19148             12.12774
2044.08642  1081.83951  81.00000   12.83110             8.54714
2045.73333  1028.00000  30.00000   9.17969              4.24997