# Filename: Nuclei_bidi_pfa_001.npz
# Voxel size (nm): (108, 108)
# Area quantity: voxels
# Num nuclei detected: 1618
Y           X           AREA       MAJOR_AXIS_LENGTH    MINOR_AXIS_LENGTH
10.03676    1413.19118  136.00000  13.77928             12.87936
27.97238    995.95580   181.00000  18.75806             12.35940
30.77500    1500.13125  160.00000  17.99484             11.47171
40.63285    972.72947   207.00000  20.44151             13.19623
42.77895    1005.16316  190.00000  17.30222             14.13224
45.15068    1557.80822  146.00000  17.92622             10.61921
51.09596    1218.67677  198.00000  17.06278             14.86274
58.64822    1038.26087  253.00000  22.92684             14.10248
57.50410    1141.73361  244.00000  19.85868             15.71588
60.72619    1247.02976  336.00000  24.50924             17.79212
71.06091    1224.88832  197.00000  18.93670             13.30492
73.42500    1449.56250  240.00000  20.23204             15.17823
74.28958    1306.62548  259.00000  19.87933             16.64130
76.24476    1190.52448  286.00000  19.76518             18.53533
77.36875    1415.15000  160.00000  15.74794             12.97562
82.06773    1346.03586  251.00000  19.57190             16.39217
83.84397    1371.90071  282.00000  21.40709             16.97300
84.89069    727.68016   247.00000  19.37574             16.26152
87.74262    1475.69198  237.00000  20.16723             15.02362
89.84677    1430.17339  248.00000  18.49634             17.31854
91.27049    847.70082   244.00000  20.81773             15.27946
92.61411    900.64315   241.00000  19.40631             15.87464
92.69369    1513.26577  222.00000  18.97865             14.90599
94.21849    874.21008   238.00000  19.08259             16.00730
95.19081    816.57597   283.00000  21.51149             16.85696
95.13287    1053.86713  143.00000  16.29893             11.29717
95.58685    958.77934   213.00000  19.37003             14.08612
102.73510   1035.21523  302.00000  24.39159             15.79025
103.41935   940.29391   279.00000  25.49471             15.31098
105.93128   745.75592   422.00000  28.28261             19.82420
104.36047   888.15116   172.00000  16.90049             12.98026
104.51773   1262.97163  282.00000  19.20313             18.77494
112.52749   785.95316   491.00000  38.28337             17.47778
107.03738   834.16355   214.00000  18.13459             15.15140
109.16438   1170.65753  219.00000  19.95391             13.98656
112.25974   905.82792   308.00000  23.80970             16.51798
114.11481   1287.08148  270.00000  19.19926             18.00959
114.93061   866.99184   245.00000  20.88436             14.95606
119.72197   1604.76682  223.00000  20.99826             13.55597
122.65769   1197.46923  260.00000  19.44515             17.13465
128.70323   701.04516   155.00000  16.35126             12.11961
135.17526   816.84536   194.00000  16.63458             15.29989
134.92593   663.19136   162.00000  16.42328             12.58344
137.51471   1048.40196  204.00000  18.75652             13.97043
138.51643   979.12676   213.00000  19.55528             13.98577
136.53000   1504.64000  100.00000  13.99053             9.38600
138.14110   790.53988   163.00000  16.16483             12.83490
137.94872   1063.20513  156.00000  15.42243             12.96139
139.95018   1347.95374  281.00000  20.24862             17.74627
140.64683   856.44444   252.00000  20.35889             15.77150
143.52535   747.63594   217.00000  16.83912             16.43784
146.48661   726.89286   224.00000  19.05503             15.03822
146.80676   822.93237   207.00000  17.86994             15.00256
145.00000   1595.62500  104.00000  12.80825             10.69897
151.81070   993.05761   243.00000  22.62273             13.78902
160.36675   1043.51345  409.00000  28.17271             19.03097
156.48374   1574.75203  246.00000  20.50058             15.36038
160.65217   1388.63913  230.00000  20.55165             14.31970
162.75794   855.94444   252.00000  21.89881             14.80545
161.33333   1534.43556  225.00000  20.01029             14.38647
164.78636   980.90000   220.00000  21.59276             13.03940
159.46154   1446.03077  65.00000   10.10480             8.29135
161.71348   1471.45506  178.00000  15.63673             14.56604
163.62238   649.72727   143.00000  17.71050             10.53862
167.22989   1426.67241  348.00000  23.41159             19.28972
170.94444   1074.46296  216.00000  17.96951             15.46284
176.18776   718.50204   245.00000  20.05345             15.61336
178.78261   973.02717   184.00000  21.71594             10.84667
179.11462   1369.77866  253.00000  20.55506             15.81380
177.40000   1004.30244  205.00000  17.32408             15.08897
179.97260   1469.39726  146.00000  14.73287             12.73631
186.15306   764.30612   294.00000  26.52908             14.19472
187.44545   962.41364   220.00000  18.61135             15.08991
190.90395   648.89266   177.00000  23.60315             9.85000
189.90041   873.59751   241.00000  19.27072             15.95835
190.73307   1522.32271  251.00000  20.25918             15.93070
191.74457   727.85870   184.00000  15.90466             15.13504
193.02622   1553.65918  267.00000  20.01859             17.12416
197.02740   1044.20548  292.00000  23.90580             15.63595
195.24057   914.20755   212.00000  18.57968             14.58259
194.06757   1782.70270  74.00000   10.00424             9.49799
203.44635   800.74678   233.00000  22.50710             13.23987
205.05405   1064.18919  259.00000  20.90445             15.85475
210.39414   924.65147   307.00000  26.39616             15.00834
206.78363   1620.88889  171.00000  18.01769             12.14465
211.72378   900.30420   286.00000  21.61369             17.18249
210.57477   1596.81776  214.00000  17.92385             15.37880
212.46893   1079.27684  177.00000  16.21044             14.23143
219.85915   1547.40845  213.00000  18.32636             14.92180
222.38996   992.02703   259.00000  20.46121             16.23258
223.02924   1376.33333  171.00000  18.37723             11.97050
223.57092   862.66312   282.00000  21.53197             16.77667
224.53571   958.92411   224.00000  18.12996             15.73369
225.48402   1014.63470  219.00000  19.21613             14.56392
226.80080   889.62948   251.00000  22.19149             14.46652
229.17699   1515.46460  226.00000  17.56016             16.47860
227.44318   1605.67045  88.00000   13.04088             9.26188
228.75132   1463.10053  189.00000  15.61170             15.45473
231.77736   1574.62264  265.00000  20.76196             16.32632
232.03438   829.43438   320.00000  26.39636             15.52399
232.96296   1491.91534  189.00000  19.54718             12.37823
235.94619   1629.33184  223.00000  23.28962             12.61790
237.62545   1084.40727  275.00000  27.03288             13.08453
233.53614   1883.28313  166.00000  15.93447             13.37031
239.73077   1845.11538  52.00000   9.89549              6.86790
244.11211   1009.04933  223.00000  20.30565             14.06698
245.08939   918.40782   179.00000  18.53681             12.36186
248.56159   937.24275   276.00000  28.29673             13.26327
247.45192   969.72115   208.00000  18.83481             14.09744
247.36364   888.91866   209.00000  17.80123             15.11091
254.78313   928.06627   166.00000  20.30912             10.61569
257.56667   1044.19167  240.00000  22.40974             13.66057
259.37436   1679.76410  195.00000  17.02366             14.61947
259.01124   1791.22472  178.00000  15.95763             14.23416
263.44295   1512.60403  298.00000  20.64806             18.41240
263.57732   1308.88144  194.00000  18.19808             13.76137
264.04938   830.87654   162.00000  17.50040             11.85181
264.88158   967.64912   228.00000  18.91592             15.83004
266.14533   853.97924   289.00000  21.31928             17.30996
270.42560   1358.62202  336.00000  22.56771             20.25763
270.77056   1607.01299  231.00000  19.74452             15.16752
269.43200   1634.83200  125.00000  13.68050             11.77923
274.10776   1558.14224  232.00000  19.08084             15.48186
277.19167   1249.68333  240.00000  21.52444             14.23983
279.59919   834.87449   247.00000  19.39865             16.29919
283.11182   989.07987   313.00000  25.42932             15.73907
282.60550   1050.07339  218.00000  20.67152             13.48265
283.49597   1432.51210  248.00000  23.05607             13.68878
283.58549   802.79275   193.00000  17.79800             13.86695
287.50397   1083.60714  252.00000  23.57936             13.71900
287.29655   257.37241   145.00000  15.25739             12.14395
292.53608   878.12371   194.00000  18.24363             13.54858
293.05147   1980.88971  136.00000  16.35725             10.69211
294.50595   1651.55952  168.00000  16.71254             12.92711
300.70697   1038.15779  488.00000  26.22565             23.90454
301.22422   845.24664   223.00000  21.30502             13.53670
300.50746   317.68657   134.00000  18.39463             9.98233
300.72653   969.44490   245.00000  20.77241             15.04919
301.56780   865.97034   236.00000  19.61236             15.49456
301.34762   929.08571   210.00000  17.22229             15.56824
302.28761   1585.78761  226.00000  18.48901             15.58209
305.66667   1605.00000  186.00000  20.94824             11.75356
304.79167   1410.40625  96.00000   13.03638             9.58564
307.90667   951.21333   225.00000  17.64086             16.26131
309.94706   1100.04118  170.00000  17.39477             12.44789
313.03704   828.77249   189.00000  18.54156             13.05404
316.70659   1422.28144  167.00000  19.18306             11.15810
318.33955   907.23881   268.00000  21.70109             15.79461
317.58049   1044.95610  205.00000  17.76674             14.85716
321.70567   1063.20213  282.00000  21.92531             16.50167
316.41026   1118.60256  78.00000   11.57515             8.64549
322.78146   988.14570   151.00000  19.80101             9.85364
324.75556   1273.48519  270.00000  22.08051             15.63646
323.54450   799.68063   191.00000  17.91317             13.66270
324.08377   1000.14136  191.00000  17.07063             14.39947
324.29843   1026.22513  191.00000  18.57337             13.09563
335.18037   332.58355   377.00000  37.42462             14.84372
326.77711   953.75904   166.00000  17.28623             12.30504
332.46209   359.25632   277.00000  32.18538             12.34324
328.83682   1545.89121  239.00000  19.60775             15.61220
333.39349   703.23373   338.00000  25.72448             17.11742
327.85185   837.91005   189.00000  15.72835             15.33302
332.77200   1405.98000  250.00000  21.61838             14.91199
334.04659   923.90681   279.00000  25.41192             14.04843
336.65000   1329.20556  360.00000  26.67336             17.35980
342.31742   1145.23596  356.00000  28.63387             16.03727
337.83173   789.99038   208.00000  18.82736             14.17742
340.91111   389.91111   315.00000  23.85727             16.99972
338.10938   823.65104   192.00000  17.84765             13.71089
337.50568   1647.07955  176.00000  16.54024             13.58310
342.37668   267.92825   223.00000  17.60147             16.24743
342.83824   807.11765   204.00000  22.44935             11.73290
350.28846   840.79808   208.00000  16.70753             15.94551
355.90942   1365.26449  276.00000  24.11667             14.75125
355.79134   376.39370   254.00000  23.24431             14.12507
355.88446   718.11554   251.00000  19.37728             16.55025
362.22823   1034.76877  333.00000  27.84666             16.41662
352.78889   1697.92222  90.00000   13.13963             9.04594
358.29114   199.03797   237.00000  20.62268             14.67025
360.20376   1085.87147  319.00000  23.76073             17.70157
358.59024   244.17073   205.00000  19.43739             13.60026
363.61938   1642.47059  289.00000  27.62142             13.74705
364.34426   272.69399   183.00000  17.70629             13.19174
366.06897   1668.79885  174.00000  15.34440             14.44325
368.84577   1012.85075  201.00000  18.08233             14.28683
370.21256   338.98068   207.00000  19.48850             13.71873
368.48387   1190.98925  186.00000  16.00229             14.81522
369.21368   1532.02137  234.00000  18.90002             15.78489
370.55422   1122.86747  249.00000  20.35608             15.76843
370.84270   998.63483   178.00000  16.06682             14.12313
368.72269   1489.84034  119.00000  13.21829             11.48071
372.06075   291.17290   214.00000  21.89874             12.68679
374.51685   371.23970   267.00000  20.30018             16.86156
376.72794   424.49632   272.00000  22.18559             15.64018
378.21477   1295.60738  298.00000  25.02930             15.39004
378.63441   1654.31183  186.00000  19.18138             12.51209
377.84167   1481.55833  120.00000  13.54573             11.34568
382.69896   1212.84775  289.00000  21.01399             17.62655
383.39899   963.46970   198.00000  18.48279             13.73731
381.39634   1081.85366  164.00000  16.76116             12.56447
384.32283   136.70866   254.00000  20.18914             16.10849
384.59391   391.80203   197.00000  16.82021             15.04604
386.21198   943.25346   217.00000  19.26861             14.39364
385.47712   272.90196   153.00000  14.99021             13.05972
389.54286   738.34603   315.00000  21.35862             19.02273
385.08730   1098.78571  126.00000  13.16763             12.17771
388.89552   1245.19900  201.00000  17.90857             14.35814
390.04898   1436.51429  245.00000  18.13731             17.25180
389.80620   260.82946   129.00000  13.79474             11.93341
394.42739   890.77178   241.00000  22.12902             14.07843
394.26241   1517.75532  282.00000  20.27884             17.99408
394.58140   326.89302   215.00000  18.52459             14.88098
395.98077   1536.69231  156.00000  18.31413             10.92610
396.73944   232.83099   142.00000  15.74240             11.64679
399.70635   1666.24603  126.00000  17.93362             9.95732
400.12069   1272.91810  232.00000  19.20515             15.48284
399.52830   182.84277   159.00000  16.77505             12.18001
400.35000   999.46000   200.00000  17.88611             14.43958
401.63514   1084.54054  222.00000  17.97191             15.84861
397.85526   828.84211   76.00000   11.95927             8.10650
402.01456   1313.86893  206.00000  17.24223             15.31735
405.65035   945.63287   286.00000  21.30819             17.15994
402.28902   1549.36994  173.00000  16.09722             13.71597
405.07426   316.97030   202.00000  19.81015             13.10167
404.39037   1057.30481  187.00000  17.81016             13.45170
405.37222   402.11111   180.00000  17.96579             13.04584
408.48133   1410.15768  241.00000  19.44678             15.82871
406.66429   1594.57143  140.00000  14.50398             12.31403
410.29832   350.97479   238.00000  18.88953             16.11316
418.18286   841.42286   525.00000  28.71137             23.80353
411.44019   988.86124   209.00000  19.56544             13.70103
410.38095   1032.98639  147.00000  15.98423             12.01030
413.48636   124.33182   220.00000  18.25989             15.41938
413.05319   1356.41489  188.00000  16.04972             14.90504
415.26009   266.29148   223.00000  17.47176             16.30730
416.21757   1123.19247  239.00000  20.41231             15.01116
415.21637   422.07018   171.00000  15.85667             13.81228
417.77974   1107.75330  227.00000  19.87158             14.64967
416.13182   1323.37727  220.00000  18.39454             15.23256
418.66245   911.59494   237.00000  20.28784             15.00118
417.78286   1053.71429  175.00000  15.93289             14.00376
419.87981   1073.89904  208.00000  20.31280             13.08243
419.82326   220.89302   215.00000  20.68694             13.71403
419.72794   314.94853   136.00000  14.46497             12.05415
419.61654   1591.00752  133.00000  14.24676             11.96108
423.91630   1657.81057  227.00000  22.10528             13.17223
420.20144   106.29496   139.00000  14.39432             12.38819
423.38559   884.81356   236.00000  18.74697             16.13468
424.73362   1467.12664  229.00000  17.85930             16.37773
425.61049   363.74157   267.00000  22.01029             15.59479
425.56705   793.80843   261.00000  22.34854             15.09937
426.09659   1609.01136  176.00000  17.66722             12.74184
426.54494   151.32584   178.00000  17.50847             12.94035
427.36458   188.90104   192.00000  16.73678             14.73138
429.14062   1027.03906  256.00000  19.75204             16.68506
429.08969   1090.52915  223.00000  19.33652             14.77004
429.28511   1360.35319  235.00000  18.62755             16.12131
429.08411   331.96262   214.00000  17.71481             15.42160
429.88382   413.19917   241.00000  19.57343             15.68244
429.77667   744.73000   300.00000  28.04954             14.22694
432.86869   943.01010   198.00000  16.29384             15.48446
437.44526   242.91971   137.00000  15.93844             11.18285
438.24841   293.47134   157.00000  15.53515             13.03900
442.16500   218.04500   200.00000  17.13730             14.88909
443.23158   1057.85263  95.00000   11.63315             10.66480
447.85809   574.62046   303.00000  20.11670             19.34449
451.11986   953.48630   292.00000  21.88018             17.01040
449.57051   402.41026   156.00000  16.79280             11.87320
452.05147   1465.97059  272.00000  19.89192             18.08533
451.29108   1612.39906  213.00000  16.77160             16.19228
450.76879   384.65318   173.00000  15.29700             14.59064
453.13780   716.38583   254.00000  20.00068             16.29633
453.09948   1596.85340  191.00000  17.39527             14.03890
453.81111   80.98333    180.00000  16.01122             14.38669
454.07664   155.94161   274.00000  22.75102             15.68375
454.67442   126.02326   172.00000  16.39702             13.42474
458.08993   1012.35612  278.00000  21.36860             16.79804
459.48819   690.62992   254.00000  18.80907             17.28756
462.02128   615.09220   282.00000  20.72403             17.43526
461.47826   1660.50435  230.00000  20.60019             14.29284
462.35165   667.14286   273.00000  22.18663             15.87629
460.27200   375.22400   125.00000  14.00221             11.41926
464.24797   210.87398   246.00000  18.61205             16.88399
465.58621   314.07759   116.00000  12.93690             11.48945
469.18333   1636.38333  180.00000  17.66945             12.97910
469.24051   124.15190   158.00000  14.66140             13.90936
473.00000   1474.79204  226.00000  18.85492             15.40411
475.16176   558.31863   204.00000  19.14106             13.60681
475.89922   378.22868   258.00000  19.08090             17.40371
475.46635   538.78846   208.00000  17.97819             14.75611
476.91324   142.28311   219.00000  17.07991             16.34521
477.79389   962.84733   262.00000  25.79334             13.08699
477.13402   1620.60825  194.00000  18.47395             13.40454
483.39714   297.78571   350.00000  25.71249             17.57981
480.54286   644.67755   245.00000  19.86395             15.88607
476.17647   185.62745   51.00000   9.30335              7.50316
482.08085   199.35745   235.00000  19.35329             15.53415
481.01005   160.84422   199.00000  18.14022             14.01614
483.42379   1156.67658  269.00000  20.66708             16.62614
487.08824   608.26471   272.00000  22.76985             15.31417
488.25806   954.48925   186.00000  18.63203             12.84629
492.57951   1263.06714  283.00000  23.87846             15.27252
489.24000   1019.73333  75.00000   12.11106             7.87631
489.91667   1868.45455  132.00000  14.76723             11.44009
496.98625   881.16151   291.00000  21.24608             17.55594
499.47213   995.52787   305.00000  25.30883             15.45598
495.12560   522.43478   207.00000  19.03357             14.00248
497.93644   1175.69492  236.00000  21.04571             14.37743
496.17197   221.94904   157.00000  15.50546             12.97066
501.91632   142.95816   239.00000  19.18000             15.90940
500.92179   621.15084   179.00000  16.56926             13.83191
505.38438   916.02402   333.00000  24.98107             17.01649
503.27111   339.60889   225.00000  18.67910             15.43334
501.93333   379.10303   165.00000  16.07748             13.07836
509.64727   634.66909   275.00000  28.76302             12.53419
506.32653   1190.75510  245.00000  21.58923             14.62256
507.73077   1690.86538  260.00000  18.92768             17.50563
508.19126   528.05464   183.00000  15.78868             14.81571
510.20641   791.60854   281.00000  20.96073             17.89944
513.06269   1025.73433  335.00000  28.01767             15.29696
506.87654   1913.37037  81.00000   11.93969             9.55259
511.33878   955.28980   245.00000  21.69609             14.47734
511.36190   185.06190   210.00000  17.73402             15.23639
511.23684   304.27368   190.00000  16.58003             14.65880
510.93258   360.70787   178.00000  16.26702             13.97316
511.50769   201.50000   130.00000  14.97349             11.09025
514.53409   1258.37500  176.00000  16.61697             13.48293
517.88727   1239.38909  275.00000  20.23916             17.52790
523.23077   210.43007   286.00000  24.61737             14.92612
520.48707   381.36207   232.00000  21.86620             14.50482
521.86697   239.22018   218.00000  19.22667             14.54859
523.45907   1731.09609  281.00000  22.26082             16.20368
531.62805   611.70122   164.00000  24.32757             9.05488
529.76852   621.18981   216.00000  22.74052             12.55616
528.49495   182.15152   198.00000  18.87250             13.37971
524.93162   356.82051   117.00000  13.11221             11.34657
529.83060   1123.21311  183.00000  17.96259             13.02397
529.81308   1461.25701  214.00000  19.76215             13.87765
527.63000   249.61000   100.00000  12.39742             10.29563
532.62025   1751.52743  237.00000  18.17415             16.69449
533.00000   115.52601   173.00000  16.27724             13.56083
531.57447   196.02128   94.00000   12.49169             10.03982
532.87342   367.21519   158.00000  14.99561             13.48446
537.53710   482.76325   283.00000  19.30011             18.73302
536.54348   598.68478   184.00000  17.76497             13.27317
535.15642   1898.25140  179.00000  16.82235             13.58060
538.31285   967.73184   179.00000  16.25024             14.13525
540.37722   1314.37367  281.00000  19.52203             18.50888
540.34404   1792.15596  218.00000  19.15158             14.86940
541.52107   20.93870    261.00000  20.68328             16.22391
543.20438   70.36131    274.00000  21.64626             16.21694
540.00000   168.17886   123.00000  14.11618             11.19933
544.31518   226.40467   257.00000  21.21912             15.47631
548.31217   381.46296   378.00000  28.76424             17.23814
542.39735   248.46358   151.00000  15.85721             12.16505
546.68013   158.17508   297.00000  25.44279             14.98343
547.88506   1214.45977  261.00000  21.91848             15.21550
547.78378   1387.59797  296.00000  21.51130             17.68906
545.55187   1451.86722  241.00000  19.10927             16.22880
547.96517   292.01493   201.00000  18.60861             13.82063
553.49383   755.54938   324.00000  24.97687             16.61526
551.79060   1031.84615  234.00000  20.97633             15.10330
552.55072   1046.42995  207.00000  19.00883             13.93199
554.47244   918.42126   254.00000  19.40385             16.79172
554.03797   1116.58228  158.00000  15.26041             13.34456
557.74227   990.21134   194.00000  18.38747             13.57377
560.62319   173.21256   207.00000  21.85195             12.31942
560.61481   93.22963    270.00000  20.31439             17.06080
561.53431   301.92157   204.00000  16.65563             15.68446
562.00699   211.37063   143.00000  17.11766             11.07147
561.72951   959.94262   244.00000  18.18883             17.17056
562.84821   18.75000    112.00000  13.78648             11.23102
566.49554   1127.29018  224.00000  19.95622             14.57646
569.20992   36.00763    262.00000  22.84884             14.74165
568.47442   132.97674   215.00000  17.76931             15.52223
572.00826   1345.97934  242.00000  21.33641             14.57120
573.82353   616.81176   255.00000  21.85512             14.99497
571.02247   1218.55056  178.00000  16.84908             13.56686
575.09541   70.65724    283.00000  24.04326             15.07093
573.68641   1827.19164  287.00000  21.51290             17.09604
577.65868   1323.45509  167.00000  17.70604             12.31429
581.12653   1097.47347  245.00000  19.35770             16.17910
581.35678   351.35176   199.00000  18.31509             13.83021
585.51542   259.84141   227.00000  20.88752             13.89994
583.48466   398.99387   163.00000  14.83241             14.06192
586.13930   95.81592    201.00000  18.84761             13.62959
587.95988   558.85494   324.00000  27.66426             15.75288
592.92881   751.12542   295.00000  28.29223             14.00738
588.99407   154.93769   337.00000  25.16516             17.10031
585.64000   1316.98000  100.00000  11.86061             11.05467
590.57407   989.14352   216.00000  18.58689             14.84609
590.93694   377.12613   333.00000  26.87405             16.52485
592.47253   1022.49817  273.00000  21.19131             16.72708
590.32407   202.74383   324.00000  29.22536             14.45426
591.67308   61.50641    156.00000  16.35858             12.25452
594.09043   126.05851   188.00000  16.76181             14.31725
596.04091   1234.51818  220.00000  19.66389             14.27233
597.27426   308.43038   237.00000  18.72463             16.21343
597.51771   907.64578   367.00000  26.78091             17.77904
596.45933   1078.96651  209.00000  17.52999             15.22666
598.33962   1115.28302  159.00000  16.03461             12.69242
600.39572   847.21390   187.00000  19.38002             12.34274
597.77922   869.49351   77.00000   12.27063             7.97246
603.34375   1332.22266  256.00000  23.84627             13.98156
601.51440   349.16049   243.00000  18.40147             16.93704
603.28302   1126.06918  159.00000  17.37293             11.83186
599.69231   1047.88462  26.00000   6.16606              5.34412
605.73936   190.29787   188.00000  16.42728             14.62945
607.71004   585.75465   269.00000  23.29769             15.18689
604.50307   85.19018    163.00000  18.15857             11.48888
609.17874   860.62802   207.00000  20.92269             12.69558
611.53709   1143.22552  337.00000  24.43723             17.78551
609.14216   1219.70098  204.00000  18.32378             14.29845
610.92000   48.33600    250.00000  20.55713             15.52726
613.03593   300.47006   334.00000  23.58729             18.14479
610.92537   145.41045   134.00000  14.44346             11.89275
611.75595   1517.77976  168.00000  15.00377             14.31002
614.91525   1567.38418  177.00000  19.59532             11.77516
614.17188   1293.70312  256.00000  18.40437             17.73827
612.74877   1452.16256  203.00000  20.02995             12.93748
615.96170   1053.74043  235.00000  18.08347             16.83125
619.02315   1034.26389  216.00000  18.94703             14.68302
620.01984   1275.31349  252.00000  22.18505             14.85454
619.58228   904.20886   158.00000  15.27565             13.18323
622.21121   1320.23707  232.00000  20.67434             14.36207
621.55118   1461.73228  127.00000  14.04676             11.58959
624.80159   722.52381   252.00000  19.67536             16.46122
623.27835   974.94330   194.00000  15.95698             15.51857
624.16588   1508.85782  211.00000  17.12653             15.77759
626.95851   960.07884   241.00000  19.51535             15.85107
630.94881   515.23549   293.00000  25.62317             14.61211
627.17391   1475.06522  230.00000  17.66221             16.66598
628.72539   869.67876   193.00000  18.01060             13.66870
630.01375   891.33677   291.00000  21.65066             17.94000
631.09881   108.56126   253.00000  24.38172             13.25648
630.62500   39.21354    192.00000  17.52517             14.18234
630.81600   234.89600   125.00000  13.83021             11.54931
633.69149   1410.69149  282.00000  20.58808             17.74145
631.87861   85.95954    173.00000  16.84536             13.16132
632.10494   199.08025   162.00000  15.02222             13.81463
638.57333   284.91667   300.00000  23.84397             16.32384
636.67097   151.82581   155.00000  15.55652             12.71459
643.46714   264.98357   426.00000  32.39392             17.66623
637.97368   1617.07018  228.00000  17.50217             16.85765
638.63235   299.47549   204.00000  17.87832             14.72084
637.94037   1334.64679  218.00000  22.37062             12.97979
641.36150   987.30986   213.00000  17.30074             15.76369
646.46212   101.25758   264.00000  21.91353             15.40318
646.36996   1001.88278  273.00000  24.80828             14.14681
642.85185   1347.38624  189.00000  17.26902             13.98395
645.94248   1302.46903  226.00000  20.38068             14.17814
647.75691   189.02486   362.00000  26.91375             17.55052
648.09312   1417.13765  247.00000  22.66652             13.95618
648.42509   619.25784   287.00000  26.59651             14.36320
651.32703   644.16486   370.00000  26.09362             18.31270
649.93305   1028.31381  239.00000  19.13496             15.97713
650.78659   159.25610   164.00000  16.10241             13.07045
652.07595   1073.86076  316.00000  24.06109             16.74540
651.05691   1369.41463  123.00000  17.94779             8.98153
653.09223   80.13107    206.00000  19.04375             13.80982
655.21951   1240.10801  287.00000  22.85469             16.12391
656.16883   1384.32468  231.00000  20.02667             14.73025
656.19095   600.64824   199.00000  20.37002             12.64064
658.47236   1282.83417  199.00000  18.05821             14.08452
657.30233   1359.34884  172.00000  15.92471             14.01390
660.09474   590.07368   190.00000  20.18806             12.12397
663.33654   322.99038   208.00000  22.19428             12.09833
663.22692   671.02692   260.00000  22.25466             15.03696
663.44337   1490.80906  309.00000  22.31081             17.75892
662.93750   1654.29464  224.00000  18.76650             15.46225
667.87831   1346.05291  189.00000  17.14806             14.36673
669.42609   1516.43478  230.00000  18.62834             16.00962
672.24370   634.42017   238.00000  22.09947             14.02782
675.74126   309.73776   286.00000  23.00070             17.29988
674.91481   1283.69259  270.00000  22.93626             15.15366
676.54867   133.15929   226.00000  17.86420             16.28621
676.93333   204.04167   240.00000  20.68221             14.85533
677.80412   1531.98454  194.00000  19.04994             13.12697
682.59701   1267.53358  268.00000  22.63129             15.13371
680.90625   1341.73958  192.00000  17.83132             14.00541
681.94643   79.22143    280.00000  22.39167             16.00393
681.56846   1411.62241  241.00000  18.23760             16.90357
683.84585   938.77075   253.00000  19.21130             16.79396
686.47321   1806.67411  224.00000  18.15341             15.78291
690.21289   108.51261   357.00000  25.64850             17.82182
690.00855   1109.08547  234.00000  21.69587             13.86166
691.30153   1014.88931  262.00000  25.35502             13.22005
688.72289   1324.43373  83.00000   12.20773             8.64760
691.35874   1866.77578  223.00000  19.38773             14.70354
692.89352   620.07407   216.00000  18.40395             15.00825
692.99029   186.49515   206.00000  19.77322             13.32377
694.07851   1246.67769  242.00000  25.64252             12.16170
697.80997   249.81931   321.00000  25.40499             16.29070
697.09562   919.22311   251.00000  20.55650             15.85622
698.04364   976.34182   275.00000  21.53059             16.38057
696.56444   1433.61778  225.00000  17.80170             16.16367
696.86607   1691.33036  224.00000  20.79047             13.90818
696.59459   1517.68649  185.00000  17.90446             13.21039
701.56981   159.57358   265.00000  19.33578             17.61219
705.47847   1213.69378  209.00000  25.28824             11.48546
700.38710   904.83871   31.00000   7.11867              5.53533
706.38073   1224.22018  218.00000  23.14107             12.23177
708.06404   1257.86700  406.00000  26.54261             19.75236
705.50218   1909.17467  229.00000  18.55106             15.84804
706.62562   1461.39901  203.00000  17.37668             14.90660
709.34902   510.45098   255.00000  20.41223             15.94219
709.00000   613.35714   252.00000  20.15364             16.21031
707.33171   1713.07317  205.00000  17.85738             14.78198
713.30000   1477.44091  220.00000  18.17542             15.50642
713.42135   1696.85955  178.00000  18.57800             12.53914
717.84649   732.65789   228.00000  18.95092             15.49926
718.00613   250.71166   163.00000  17.35333             11.99017
728.97183   1138.48826  213.00000  19.50688             13.98430
731.24535   651.28996   269.00000  22.20604             15.74670
731.03734   1124.04564  241.00000  19.55240             16.05968
731.09548   1341.31658  199.00000  17.90384             14.23262
734.44488   700.91732   254.00000  22.26286             15.29919
733.21759   1314.46759  216.00000  17.32422             15.93228
736.40000   1071.03019  265.00000  27.04744             12.55528
737.49180   564.63388   183.00000  19.50273             12.21262
739.11628   1368.86047  215.00000  17.05351             16.31774
740.31481   1012.27778  216.00000  19.26351             14.43840
739.18367   1575.42857  196.00000  17.08034             14.82302
746.69231   502.18639   338.00000  29.21007             14.96792
744.06950   574.49421   259.00000  22.55823             15.14735
740.47333   1770.59333  150.00000  16.13412             11.94290
743.31401   1398.89372  207.00000  18.87917             14.01456
749.93403   1341.83333  288.00000  23.82905             15.68956
750.33498   1211.02463  203.00000  18.54950             14.10037
752.53140   650.94686   207.00000  18.74888             14.14395
750.69841   1262.73016  189.00000  20.98700             11.99007
760.00830   777.21577   241.00000  25.30187             13.12811
754.64384   1104.14155  219.00000  18.70440             14.93779
754.14851   1612.60891  202.00000  19.39405             13.38838
759.38938   1479.96903  226.00000  21.84149             13.33616
757.84135   2016.47115  208.00000  17.80077             14.96230
761.73059   702.54795   219.00000  18.80097             14.85674
761.78667   1733.62222  225.00000  17.96003             16.05460
763.20398   1200.71144  201.00000  19.88288             12.94021
765.88506   569.48659   261.00000  21.34187             15.99964
764.01645   1006.51645  304.00000  25.60974             15.40937
761.60127   1256.56329  158.00000  16.18026             12.67896
763.22422   1356.70852  223.00000  19.58293             14.55329
763.82166   1602.89809  157.00000  14.65730             13.92717
765.89873   1084.62025  79.00000   13.50592             7.54597
769.42804   1225.15867  271.00000  20.42536             17.00927
772.28269   534.64311   283.00000  20.14513             18.73798
772.16923   1339.15897  195.00000  18.74672             13.47916
774.42727   1104.11818  220.00000  20.94793             13.42737
772.50000   820.28571   70.00000   9.72185              9.19982
772.21667   832.68333   60.00000   9.21749              8.27137
774.25581   802.43023   86.00000   11.12540             9.87518
780.44891   657.43066   274.00000  20.63222             16.95860
780.20994   1273.29834  181.00000  19.38208             11.88601
779.11814   1380.40506  237.00000  21.28614             14.25096
782.15209   1054.16730  263.00000  23.00635             14.82842
776.46512   811.06977   43.00000   7.93456              6.85506
781.97490   1505.82845  239.00000  19.10937             15.98140
779.43750   853.65625   64.00000   9.70507              8.41775
786.18455   563.05579   233.00000  19.18726             15.53872
782.54167   840.39583   48.00000   8.12191              7.51664
785.91797   1240.24219  256.00000  21.25165             15.64077
787.07222   972.21667   180.00000  16.93290             13.88517
792.47222   1256.47569  288.00000  24.15959             16.51475
788.33562   748.36301   146.00000  17.48363             10.88425
790.33838   993.86869   198.00000  17.50541             14.48573
791.30418   1173.14449  263.00000  21.11601             15.93318
790.28704   762.38889   216.00000  17.51830             15.99655
791.02527   1362.28159  277.00000  19.32900             18.40850
791.09818   604.42182   275.00000  25.41476             13.98563
792.11765   1078.40724  221.00000  20.17888             14.08961
794.52542   1532.91525  236.00000  22.16442             13.78048
795.40111   706.89694   359.00000  40.31169             11.74997
798.47447   1149.36937  333.00000  23.64212             18.53422
795.83871   1514.11982  217.00000  18.24149             15.18499
800.33058   1309.18457  363.00000  23.71676             22.48240
802.85784   626.50000   204.00000  26.86726             9.98154
797.72832   742.49711   173.00000  16.81219             13.23974
798.05405   401.70270   259.00000  24.51436             13.58040
800.33880   967.83060   183.00000  16.70968             14.15369
802.03883   1390.20388  206.00000  17.68447             14.90577
805.34915   566.01695   295.00000  27.45920             13.79351
808.24848   926.99697   330.00000  27.14568             15.97013
807.64110   987.12270   326.00000  21.65294             19.79935
807.60638   507.28723   188.00000  17.39925             13.80175
807.72139   431.27363   201.00000  16.29064             15.71500
811.96127   1271.54577  284.00000  24.53490             15.07944
810.18012   1634.57453  322.00000  23.57596             17.55243
811.57752   1087.33721  258.00000  22.56558             14.92861
812.05155   798.96907   291.00000  22.78609             16.45051
811.80147   1499.10662  272.00000  23.13955             15.33302
810.45161   1540.59355  155.00000  15.15838             13.13678
815.32450   479.37748   151.00000  15.74097             12.27576
820.66431   1332.50530  283.00000  23.26960             16.45043
816.10127   1421.79114  158.00000  18.17382             11.15550
817.34031   600.53927   191.00000  16.91006             14.53735
816.42991   1522.57477  214.00000  20.49795             13.64169
817.50000   463.90909   154.00000  15.50131             12.69188
820.03361   1227.03361  238.00000  19.89348             15.38453
817.33333   1732.68667  150.00000  16.80418             11.38087
821.14557   1348.41772  158.00000  17.51023             11.52796
827.08504   655.52493   341.00000  39.75356             13.99197
823.04762   1123.01190  252.00000  26.92140             12.09853
824.09692   1057.58590  227.00000  17.92114             16.15429
823.90000   395.45294   170.00000  15.20115             14.28533
826.45902   555.75410   244.00000  19.28179             16.19164
828.44876   1564.10247  283.00000  24.38837             15.61669
827.95798   1207.28571  238.00000  19.68937             15.47792
829.24436   1297.36842  266.00000  24.68270             14.00422
834.33670   475.31650   297.00000  28.59174             13.56559
829.58566   506.94821   251.00000  19.05562             16.92325
828.45361   533.77835   194.00000  18.02707             13.76452
830.48736   675.97473   277.00000  25.85216             13.99638
830.87500   829.07422   256.00000  19.57935             16.86708
829.55251   1672.24201  219.00000  21.63832             13.04044
832.73626   602.82143   364.00000  23.74325             19.67979
833.34397   1701.86879  282.00000  20.71701             18.02320
834.25103   914.84362   243.00000  20.14170             15.49907
836.16949   1427.83898  236.00000  19.58524             15.77655
835.09223   410.90291   206.00000  20.20617             14.06941
837.87281   1346.75000  228.00000  21.32819             13.69814
835.64286   1478.61905  210.00000  18.44355             14.77985
842.75099   384.28854   253.00000  20.54872             15.76592
843.20992   543.01145   262.00000  21.64223             15.48128
843.97391   1756.10435  230.00000  17.25256             16.98001
846.49545   1466.67273  220.00000  18.54978             15.49694
847.46311   1560.61475  244.00000  20.81021             15.16297
850.53757   411.57803   173.00000  15.66564             14.11327
851.62705   856.44672   244.00000  18.80567             16.79999
852.89503   1235.74033  181.00000  18.50114             12.50016
852.57798   1053.02294  218.00000  18.66294             14.92833
853.63838   1649.18819  271.00000  22.50360             15.55964
854.72727   1533.26705  176.00000  19.17317             11.80000
857.35610   1620.34146  205.00000  18.46335             14.13353
857.99425   1768.64943  174.00000  16.19078             13.81594
860.72500   471.04500   200.00000  18.88314             13.53900
860.87747   488.43874   253.00000  21.88676             14.82404
859.42771   654.03012   166.00000  17.81370             11.94043
858.34000   1969.30000  200.00000  17.60163             14.50563
861.54945   1145.93773  273.00000  22.24403             15.73229
859.72845   1682.64224  232.00000  23.83355             12.56884
864.33195   1188.39834  241.00000  22.50460             13.73295
863.43333   1523.01250  240.00000  18.99335             16.22074
863.23721   1461.68837  215.00000  17.83748             15.43548
866.06494   559.71861   231.00000  19.33132             15.29947
871.05575   575.00697   287.00000  26.97353             13.86100
866.34545   599.22273   220.00000  18.35567             15.28169
865.03333   895.33333   180.00000  17.20436             13.42605
877.44444   1244.21811  243.00000  33.79601             9.71267
873.15934   540.21703   364.00000  23.71879             19.57560
867.25000   713.50893   112.00000  14.14470             10.14525
875.00262   881.41470   381.00000  26.06941             19.29157
870.76190   995.28095   210.00000  17.24249             15.59588
872.19658   1325.49573  234.00000  19.35240             15.47464
872.41135   1364.68794  141.00000  14.77735             12.26666
869.62295   1483.11475  61.00000   10.49407             7.57340
875.64249   1581.23834  193.00000  16.32569             15.18760
874.61739   695.02609   115.00000  13.54094             10.92717
877.79048   707.10952   210.00000  16.55043             16.33950
876.12575   1536.50299  167.00000  17.51916             12.18862
877.63265   427.72789   147.00000  20.05687             9.62620
878.59864   735.46599   294.00000  22.12585             17.58209
878.23188   1856.60870  207.00000  19.17201             14.02493
884.17516   1502.29299  314.00000  27.44792             15.11429
881.02825   437.71186   177.00000  16.20148             14.20874
883.76471   601.67647   238.00000  21.08101             14.46021
883.67526   1429.40206  194.00000  17.72699             14.09524
883.30000   1448.40000  180.00000  16.71171             13.83422
885.55605   1183.28251  223.00000  22.63689             12.60442
889.06773   628.09960   251.00000  24.90892             12.95530
887.47177   1516.20968  248.00000  20.90704             15.35764
890.48845   1149.86139  303.00000  21.99043             18.16116
890.82213   1326.90514  253.00000  20.47278             15.91112
889.91416   968.67382   233.00000  17.59005             17.03461
888.46309   1170.00671  149.00000  14.78960             12.87251
891.31188   1102.97525  202.00000  16.38428             16.02748
890.97396   1212.38021  192.00000  16.88965             14.63156
893.35135   755.43694   222.00000  22.38716             12.81124
892.15657   849.65657   198.00000  18.39912             13.98849
894.50826   1460.38430  242.00000  18.73187             16.84668
896.59124   438.83455   411.00000  26.60351             20.36727
894.91414   1592.67677  198.00000  17.82765             14.29210
896.59116   1421.62431  181.00000  16.83586             14.02670
895.37158   1777.37705  183.00000  16.03326             14.64040
902.41481   619.25926   135.00000  13.83355             12.54579
906.54000   1151.96500  200.00000  21.07979             13.14524
904.55208   1700.73958  192.00000  17.28468             14.15196
905.95600   556.47200   250.00000  21.12092             15.08295
907.03125   1102.73661  224.00000  17.29247             16.50071
906.78414   1797.11894  227.00000  19.27213             15.12302
909.73196   854.19244   291.00000  21.08982             18.27001
908.79221   746.02597   77.00000   13.71387             7.70273
914.02294   773.77523   218.00000  18.49464             15.07027
914.31922   1009.00977  307.00000  20.74683             19.00014
913.89498   418.96347   219.00000  19.12431             14.68136
914.63043   393.24457   184.00000  17.01467             13.80493
915.25294   815.67647   170.00000  16.89628             12.90713
916.26857   711.38286   175.00000  15.52964             14.84990
915.89744   1421.70513  156.00000  16.32586             12.27084
920.90476   879.26840   231.00000  22.07665             13.37502
917.58333   637.42857   168.00000  16.30801             13.13479
922.40502   917.57706   279.00000  25.38721             14.44144
919.33533   534.07186   167.00000  16.80275             12.95414
921.45494   725.87124   233.00000  21.71884             13.75360
919.61765   1154.24706  170.00000  16.97138             12.79513
918.18497   1483.51445  173.00000  16.33733             13.49579
916.90780   1698.75177  141.00000  16.49723             10.95557
920.66667   573.51351   222.00000  20.70980             13.90279
921.77674   1557.73023  215.00000  17.02203             16.41809
926.37931   1620.80460  261.00000  20.50811             16.39685
923.23016   1760.10317  126.00000  13.94101             11.57701
921.83784   1264.97297  37.00000   7.93908              5.96369
928.28631   1670.07054  241.00000  19.62022             16.10895
927.97688   1077.46243  173.00000  16.43166             13.41397
931.16256   485.51724   203.00000  27.28712             9.86761
933.14530   553.27350   234.00000  20.04796             14.93339
930.40000   995.24828   145.00000  14.65275             12.63216
941.44841   1218.37698  504.00000  28.58771             23.40359
937.13468   655.72727   297.00000  19.89770             19.08659
935.65969   1153.65969  191.00000  17.58564             13.92885
940.32411   625.46640   253.00000  22.44823             14.57727
939.25325   801.50649   154.00000  17.04818             11.53291
940.86100   863.02317   259.00000  19.82822             17.05518
937.61765   1717.20588  170.00000  16.10251             13.48804
939.36331   364.26619   278.00000  25.19768             14.22294
941.02469   907.14403   243.00000  20.77210             14.89321
942.79783   431.91697   277.00000  27.09920             13.15951
936.64151   671.20755   53.00000   9.33147              7.21561
942.39465   784.66890   299.00000  23.47772             16.88052
949.69722   1576.70556  360.00000  32.48991             14.54482
942.63636   1783.83916  143.00000  14.73856             12.45722
946.53435   1394.43130  262.00000  19.35287             17.32045
944.53425   707.21233   146.00000  16.69598             11.21203
947.39409   763.68473   203.00000  17.76621             14.81216
946.19792   1675.28646  192.00000  18.83833             13.07393
952.82759   1121.46395  319.00000  24.06906             17.08936
952.33188   1004.58952  229.00000  20.44943             14.32499
951.12887   1620.91237  194.00000  16.94086             14.70395
958.26115   1087.47771  314.00000  25.12330             16.13638
957.25904   1330.90663  332.00000  24.63487             17.68961
958.53731   1475.10448  268.00000  23.42555             14.61553
956.52968   1496.56164  219.00000  17.10839             16.35270
960.33761   707.67094   234.00000  21.42257             14.25097
959.35354   1949.58081  198.00000  19.21794             13.19630
961.25614   1754.01053  285.00000  23.42065             15.78209
960.53975   26.97908    239.00000  18.98990             16.09919
956.53125   652.65625   32.00000   6.77200              5.97777
967.08311   594.05630   373.00000  22.41284             21.54319
966.94659   1002.75964  337.00000  36.94044             12.75148
960.54000   1146.27000  100.00000  13.06867             9.77435
963.15909   1197.81818  176.00000  17.38905             12.96695
964.32051   801.54487   156.00000  16.23680             12.51145
965.92040   814.20896   201.00000  17.72521             14.63051
967.25701   1064.00935  428.00000  26.52455             21.78029
967.50588   647.69804   255.00000  20.38592             16.01586
965.19048   752.07738   168.00000  15.18378             14.40619
964.05208   1432.75000  192.00000  18.73087             13.04905
966.89919   1157.99597  248.00000  22.34533             15.40865
968.07229   1414.54217  166.00000  16.58932             12.83474
969.02062   1677.42268  194.00000  17.52066             14.14273
969.96237   1457.90860  186.00000  16.65672             14.31705
970.90476   672.09091   231.00000  21.67341             13.83933
972.77528   1389.70787  178.00000  19.76729             11.76846
970.82090   1619.61194  201.00000  17.23801             14.85546
972.25641   522.86667   195.00000  17.29323             14.38224
973.80579   763.71074   242.00000  18.13149             17.18978
976.07905   1227.64822  253.00000  29.44442             11.25511
974.49718   743.19209   177.00000  15.38242             14.84571
977.97087   789.90615   309.00000  23.79534             16.74933
976.33564   846.14187   289.00000  21.84067             17.00893
974.90476   969.39683   189.00000  17.52947             13.91052
979.70330   986.95971   273.00000  28.95928             12.07602
975.40523   1695.48366  153.00000  14.24119             13.78718
982.44545   1018.93636  220.00000  18.58447             15.26123
982.41395   1370.25116  215.00000  18.42058             14.87939
985.37860   1819.55967  243.00000  24.37429             13.12948
989.22519   894.63740   524.00000  31.92616             21.43915
981.81633   1713.61224  147.00000  16.25243             11.51462
981.75362   668.54348   138.00000  18.73324             9.49174
983.84038   938.35681   213.00000  20.82573             13.22305
984.19444   1668.65000  180.00000  15.73962             14.66703
984.20118   1210.89941  169.00000  18.62165             11.58549
990.92857   697.16138   378.00000  26.31780             18.76045
987.11475   1410.31694  183.00000  15.94641             14.64714
990.82407   560.00000   216.00000  24.26288             11.73799
989.06844   813.89734   263.00000  20.08464             16.76902
993.68997   768.50760   329.00000  29.58819             15.04270
991.96615   1698.10769  325.00000  22.14021             18.89096
992.70432   480.31894   301.00000  25.18930             15.81877
988.67544   548.00000   114.00000  14.45889             10.35132
988.66667   960.70098   204.00000  20.41236             12.79590
997.49839   360.90997   311.00000  25.75791             16.19659
993.36364   723.05556   198.00000  17.33469             14.64909
994.45421   1144.65201  273.00000  21.13739             16.74156
994.31894   524.19934   301.00000  24.68190             15.99156
1000.29968  920.52681   317.00000  32.60840             12.97368
994.68201   973.14226   239.00000  26.44699             12.19387
993.85638   1185.65957  188.00000  17.21754             13.99124
993.36170   505.84397   141.00000  14.68336             12.62728
994.52174   1089.26087  138.00000  14.10795             12.50332
995.00000   656.31008   129.00000  13.46237             12.56246
996.27094   1863.64039  203.00000  18.42331             14.30003
1002.18705  1057.37050  278.00000  28.56340             12.50131
997.87892   384.57848   223.00000  20.78336             13.79889
996.39648   746.58150   227.00000  21.87823             13.45016
996.55952   1210.80952  168.00000  18.79833             11.40947
1002.53205  831.05449   312.00000  22.98539             17.54898
998.52976   1782.92857  168.00000  15.33924             14.14356
1001.29075  546.70925   227.00000  20.14159             14.43926
1001.87640  1424.42322  267.00000  21.73704             15.71139
1005.57516  653.59477   153.00000  18.42595             10.69430
1006.19435  1751.89753  283.00000  23.27309             15.87252
1004.05155  559.56701   97.00000   12.11247             10.39520
1005.84236  625.75369   203.00000  18.15035             14.29025
1009.56786  671.59286   280.00000  20.95455             17.67025
1007.17010  1496.08763  194.00000  17.33420             14.34089
1009.39109  706.61386   202.00000  18.28061             14.06338
1011.67686  1039.72489  229.00000  20.35782             14.53097
1008.05369  1105.02013  149.00000  15.04759             12.68252
1008.53378  1206.18243  148.00000  15.06078             12.60954
1011.35452  1673.89298  299.00000  19.75715             19.38785
1012.27273  1114.18182  154.00000  18.48412             11.15162
1010.70323  1146.98065  155.00000  15.61736             12.76483
1012.96479  1532.57746  284.00000  23.19668             15.62215
1010.50303  1845.31515  165.00000  16.11062             13.04995
1012.58911  872.14356   202.00000  16.29906             15.87522
1013.51174  524.23474   213.00000  18.43324             14.77495
1016.70886  485.94304   316.00000  22.80619             17.79742
1014.63874  772.31937   191.00000  17.60942             14.01830
1015.30837  1466.81938  227.00000  17.56094             16.49194
1014.70619  1188.05155  194.00000  19.32780             13.36027
1019.11297  1229.85774  239.00000  27.11742             11.31595
1020.48689  356.89513   267.00000  23.14848             15.29091
1014.83333  538.34921   126.00000  13.14913             12.18144
1018.67347  807.84694   196.00000  16.98826             14.72232
1024.66972  583.47706   218.00000  22.01154             12.75077
1024.87866  605.54393   239.00000  19.22719             16.31203
1023.60633  832.66968   221.00000  17.61628             16.32511
1024.15232  1764.56623  302.00000  20.55468             18.90314
1023.84375  1058.02604  192.00000  17.83877             13.83691
1025.54237  1152.50847  177.00000  17.51983             12.94088
1023.38365  1842.94969  159.00000  16.52377             12.35903
1026.18692  450.58879   214.00000  18.30652             14.93660
1026.63924  1404.41772  316.00000  27.60996             15.21511
1024.41176  1042.22549  102.00000  13.40936             9.89534
1027.54206  1645.20561  214.00000  22.07173             12.77350
1028.00000  746.28736   174.00000  16.52054             13.53255
1025.91000  883.75000   200.00000  21.10612             12.07154
1027.55495  956.57143   182.00000  17.94869             12.98183
1027.79793  1074.74093  193.00000  18.57481             13.41971
1028.69832  517.51955   179.00000  19.00632             12.32344
1032.56540  556.37975   237.00000  19.96930             15.17990
1027.31818  677.04545   66.00000   10.28539             8.59600
1032.73653  1173.85030  167.00000  17.94121             12.00387
1035.63317  1051.11558  199.00000  17.14466             15.02746
1037.33673  1095.64796  196.00000  21.05154             11.95121
1034.17297  806.36216   185.00000  21.00058             11.45750
1036.15108  524.93525   139.00000  15.07329             11.78419
1037.13043  732.84783   138.00000  18.91489             9.59264
1036.95288  1537.72251  191.00000  17.04615             14.34409
1037.32680  1188.85621  153.00000  16.96974             11.50964
1040.23762  1107.79703  202.00000  18.45488             13.97428
1040.67805  600.62927   205.00000  17.88903             14.63001
1040.94872  933.80513   195.00000  18.76383             13.28532
1039.32000  1581.36000  150.00000  16.44430             11.74874
1042.33696  1402.04891  184.00000  18.01047             13.43368
1047.63235  855.58088   408.00000  32.99260             15.95231
1043.51408  960.05634   142.00000  15.83169             11.51396
1048.09506  832.44487   263.00000  24.33924             13.89154
1046.67123  1728.97260  292.00000  26.45488             14.20738
1046.90291  449.00485   206.00000  16.81585             15.75135
1050.51282  575.52308   195.00000  23.85217             10.60073
1050.43578  892.62385   218.00000  21.58678             13.91364
1045.81308  903.53271   107.00000  13.18756             10.37511
1046.56371  1253.57529  259.00000  24.72522             13.37311
1050.25000  799.14103   312.00000  25.69957             15.86994
1050.38696  641.43913   230.00000  20.34351             14.67086
1048.86802  879.45685   197.00000  19.78551             12.95842
1045.04348  1171.60870  23.00000   6.19388              4.66523
1053.11667  749.83000   300.00000  24.00197             16.10213
1050.71616  1580.87773  229.00000  21.31016             13.79448
1054.18966  521.06897   232.00000  20.20397             14.73829
1055.70400  435.56800   250.00000  19.47133             16.47979
1054.53500  679.80000   200.00000  16.77357             15.36450
1054.77019  1172.46584  161.00000  16.43053             12.70423
1055.64167  625.42500   120.00000  15.96991             9.62034
1060.72932  697.62782   266.00000  23.61041             14.47431
1057.41038  1769.87736  212.00000  20.02036             13.60718
1057.81383  470.00532   188.00000  20.27194             11.91030
1060.62057  955.69504   282.00000  27.76593             13.18549
1058.77215  1648.46835  237.00000  17.93536             17.11292
1058.71689  1091.91324  219.00000  18.51418             15.24730
1059.28916  823.86145   166.00000  16.66672             13.06876
1058.72800  1231.94800  250.00000  28.55412             11.25182
1061.25424  1157.35028  177.00000  16.68736             13.93865
1061.71264  1628.58238  261.00000  18.93528             17.67855
1060.27922  723.07143   154.00000  14.91104             13.25551
1065.60504  1056.62185  357.00000  23.54717             19.41170
1062.32636  1826.62762  239.00000  19.18889             15.91655
1058.59259  1030.07407  27.00000   6.42150              5.26541
1060.39474  1249.76316  76.00000   11.45433             8.61684
1063.63839  784.37054   224.00000  20.19667             14.20081
1069.16304  922.32609   276.00000  26.42968             13.43737
1065.55208  852.50521   192.00000  17.24647             14.81043
1068.16382  1321.87372  293.00000  23.73109             15.85860
1066.44167  1425.52500  240.00000  20.44889             14.96369
1069.66109  909.44351   239.00000  20.48779             15.19860
1065.85714  579.55462   119.00000  13.30035             11.65485
1066.55238  615.36190   105.00000  12.57151             10.68370
1066.52830  1140.10377  106.00000  13.79722             9.83729
1065.75676  1201.97297  37.00000   7.43059              6.31094
1070.75691  1861.29834  181.00000  15.65809             14.78730
1075.59729  973.57466   221.00000  21.92904             12.89564
1075.45771  449.37811   201.00000  20.28458             12.73733
1074.16049  1041.35185  162.00000  14.82368             14.00490
1074.91803  1356.10164  305.00000  24.15995             16.41744
1075.76879  1148.77457  173.00000  15.95542             13.95737
1073.80899  1094.24719  89.00000   13.99727             8.11700
1078.20833  582.50463   216.00000  18.43951             15.09331
1077.17333  620.03333   150.00000  14.12172             13.73554
1076.60819  747.71930   171.00000  16.74854             13.07570
1077.59545  844.07273   220.00000  18.57243             15.23864
1081.08745  1635.43346  263.00000  20.06826             17.04857
1083.30448  408.08358   335.00000  21.90848             20.08816
1083.06481  901.35185   216.00000  19.74489             14.22370
1084.24583  961.78333   240.00000  22.33852             13.80358
1083.51739  536.46957   230.00000  18.55691             15.92713
1080.46000  820.24000   100.00000  12.50674             10.17812
1082.62136  1094.78155  206.00000  24.49919             11.02838
1078.25926  1080.25926  27.00000   6.50335              5.27749
1084.27500  429.73000   200.00000  16.78475             15.22024
1087.17333  726.58667   150.00000  24.43321             8.06085
1087.02463  1219.01970  203.00000  21.05601             12.64825
1088.85866  1836.95053  283.00000  24.04917             15.06052
1088.71069  627.12579   159.00000  15.52426             13.06862
1092.21922  1253.26126  333.00000  27.29115             16.58100
1090.75107  460.08584   233.00000  19.27512             15.45740
1089.76667  569.62000   150.00000  16.20343             11.84232
1089.41447  607.87500   152.00000  15.24518             12.87824
1097.40967  793.74300   393.00000  27.65624             18.70409
1093.14646  687.27273   198.00000  17.89825             14.13849
1093.99283  1190.70251  279.00000  31.41110             11.53820
1092.94118  1612.77124  153.00000  16.42415             12.04764
1092.72065  742.74089   247.00000  22.57010             13.99858
1094.88557  858.29851   201.00000  19.38907             13.28676
1096.84424  1426.81931  321.00000  26.40464             15.92828
1094.32099  839.46091   243.00000  20.89986             15.00042
1095.93365  657.17536   211.00000  17.45413             15.75176
1098.10175  1100.61404  285.00000  21.23613             17.42856
1098.28378  1726.03378  296.00000  25.13879             15.25032
1104.55082  713.75738   305.00000  31.78136             13.07197
1100.21509  1157.44528  265.00000  20.54521             16.55467
1100.90909  535.89205   176.00000  16.47349             13.66601
1103.40161  1777.67871  249.00000  19.71023             16.19998
1101.88889  425.40278   144.00000  15.04874             12.25960
1101.40373  629.66460   161.00000  16.93896             12.23955
1101.44944  608.62921   89.00000   13.81197             8.91030
1111.75304  613.25101   247.00000  25.50758             12.60338
1107.48333  705.11667   120.00000  15.87651             10.10515
1106.87398  1140.13415  246.00000  24.02450             13.24583
1107.74766  547.33178   214.00000  19.78529             13.85121
1109.11607  641.83036   224.00000  17.91247             16.01460
1104.37838  1236.17117  111.00000  14.84446             9.71761
1106.25217  870.21739   115.00000  14.29562             10.35295
1111.17791  1312.93558  326.00000  36.71646             11.60035
1111.16594  413.44978   229.00000  19.96947             14.67632
1113.98204  1126.58683  167.00000  15.26475             14.05334
1113.56522  1414.73292  161.00000  15.27444             13.43183
1115.32877  876.53425   146.00000  14.59703             12.89899
1118.68702  1103.23282  262.00000  23.25243             14.65235
1113.60976  1237.21138  123.00000  14.52373             10.99996
1117.61215  581.49533   214.00000  18.71795             14.61842
1116.04878  1260.17683  164.00000  19.96793             10.55818
1117.72727  592.22078   77.00000   13.42959             8.11048
1123.04265  1347.68246  211.00000  23.66239             11.43552
1120.98524  994.06273   271.00000  19.96936             17.38917
1124.24658  530.31507   219.00000  18.16739             15.45731
1123.13488  1581.08372  215.00000  17.64618             15.67889
1124.47744  1764.37218  266.00000  19.12422             17.86526
1125.35799  1619.53846  338.00000  29.71732             14.63042
1125.69399  1020.18033  183.00000  16.48350             14.17541
1127.12500  480.65104   192.00000  22.77923             11.34277
1126.90270  1331.11351  185.00000  17.18055             13.81248
1127.30201  595.70470   149.00000  16.53141             11.57376
1130.11504  1072.07522  226.00000  20.89964             13.78213
1128.93266  1258.46128  297.00000  23.02793             16.57393
1130.90355  512.94924   197.00000  18.88821             13.71500
1130.37037  820.77778   189.00000  16.64025             14.53006
1129.90196  574.46405   153.00000  14.19980             13.80898
1127.31579  802.57895   57.00000   9.37697              7.80406
1133.02789  382.58964   251.00000  23.23515             14.25615
1132.92381  471.65714   210.00000  21.58547             12.71738
1132.32447  549.69681   188.00000  18.84195             12.90704
1135.62500  751.83333   240.00000  19.61298             15.70042
1135.72581  934.70968   186.00000  19.72259             12.07660
1134.56332  1003.61572  229.00000  17.44268             16.85485
1132.82474  1119.59794  194.00000  16.96266             14.76114
1140.26549  646.15487   226.00000  31.47208             9.96615
1135.06842  669.11053   190.00000  16.15139             15.07033
1137.32766  445.93191   235.00000  19.63835             15.50781
1138.57073  849.41463   205.00000  19.40323             13.56110
1137.83537  861.60976   164.00000  15.98972             13.33599
1139.52991  1169.08120  234.00000  21.41953             13.93967
1138.05000  1349.31250  160.00000  17.17475             13.15392
1140.28283  1027.15657  198.00000  17.09586             14.82964
1141.30000  625.98148   270.00000  20.78731             16.80161
1144.46040  839.22277   202.00000  20.68195             13.12514
1145.15812  426.82906   234.00000  21.73822             13.75056
1141.56349  362.13492   126.00000  14.20020             11.44615
1144.34010  575.68020   197.00000  18.68484             13.48354
1143.49432  1052.29545  176.00000  16.77968             14.07607
1146.05525  945.03867   181.00000  17.07980             13.56009
1146.53374  655.19018   163.00000  17.68735             11.76702
1151.30973  546.81858   226.00000  20.62027             14.01894
1150.40083  1472.96694  242.00000  22.18845             13.96430
1154.21891  1136.27363  201.00000  19.75614             13.03072
1162.50865  1229.75433  289.00000  35.00406             10.81863
1153.57187  331.42813   327.00000  27.39286             15.46895
1154.16842  1435.48421  190.00000  16.90614             14.39292
1153.19286  1450.08571  140.00000  17.44352             10.72432
1158.68504  362.88189   254.00000  22.67141             14.51716
1161.15094  1247.08302  265.00000  29.70543             11.58055
1156.03488  1763.29457  258.00000  22.52321             14.68252
1157.27572  984.33745   243.00000  19.51015             16.05299
1159.44867  1001.97719  263.00000  19.10596             18.07229
1159.20370  829.93827   162.00000  17.16441             12.19052
1162.06593  572.76374   182.00000  18.58295             12.64203
1161.40566  938.18396   212.00000  18.51956             14.64687
1160.92661  1152.20642  218.00000  23.71721             11.91528
1160.39130  563.71014   69.00000   11.38433             8.05380
1164.32143  1453.95238  252.00000  21.99612             14.84326
1166.21809  631.26596   188.00000  18.41346             13.02979
1165.97984  1280.21774  248.00000  19.47888             16.36682
1167.53812  1669.80717  223.00000  18.33177             15.67011
1166.92829  33.32271    251.00000  19.85428             16.12239
1165.05076  526.14213   197.00000  19.55036             13.07058
1167.35745  784.68511   235.00000  19.75181             15.19817
1163.46154  815.56923   65.00000   10.25803             8.04001
1170.39146  1088.00000  281.00000  26.75858             13.61558
1172.15354  1432.82283  254.00000  21.01393             15.71372
1171.50761  1023.17259  197.00000  17.72380             14.35053
1174.11263  260.65529   293.00000  25.22012             15.16548
1174.16071  480.78125   224.00000  19.93390             14.47029
1173.46544  1405.12903  217.00000  25.70032             11.02408
1173.24519  534.87019   208.00000  20.94996             12.78304
1174.95775  587.11268   213.00000  18.00919             15.57236
1175.21429  863.94196   224.00000  17.97448             15.94816
1174.96296  1262.73545  189.00000  15.53751             15.50506
1177.37786  1655.30916  262.00000  19.53581             17.16390
1173.31496  1892.19685  127.00000  17.86790             9.12789
1180.14848  288.35455   330.00000  24.97390             16.97273
1177.81034  446.78448   232.00000  19.04571             15.64953
1181.31557  1244.01230  244.00000  19.51659             16.04293
1181.50877  969.68421   114.00000  14.21854             10.23708
1187.43426  795.41833   251.00000  18.22726             17.57731
1191.34650  1347.28571  329.00000  23.00804             18.26315
1192.73611  1505.97917  432.00000  27.44031             20.29278
1188.57416  986.80861   209.00000  18.91864             14.14669
1188.97026  1376.13011  269.00000  22.36219             15.48392
1194.57009  911.53271   321.00000  24.87813             16.51427
1197.10959  89.82648    219.00000  19.24844             14.54961
1197.53125  1047.85547  256.00000  21.23423             15.45785
1199.13478  194.09130   230.00000  19.57531             14.98871
1199.53540  938.68142   226.00000  17.87102             16.16317
1207.02400  247.35467   375.00000  31.10307             15.95346
1203.10140  15.47902    286.00000  25.92428             14.19980
1204.66960  427.10573   227.00000  17.43063             16.65009
1206.45221  1114.76838  272.00000  20.35071             17.12792
1206.58885  1289.93380  287.00000  21.03663             17.46143
1208.11945  124.92491   293.00000  23.57967             16.15523
1207.06818  1059.80114  176.00000  19.41304             11.90758
1208.44944  1375.40824  267.00000  19.11486             17.96430
1210.78855  629.02643   227.00000  18.36365             15.95000
1215.79938  1233.18519  324.00000  32.91697             13.33968
1209.50847  827.19209   177.00000  16.05646             14.05617
1212.56944  442.51389   216.00000  19.89904             13.85453
1218.40418  527.67247   287.00000  25.56620             14.69567
1215.22727  907.28788   132.00000  13.84021             12.22984
1218.80973  169.03982   226.00000  17.96112             16.10741
1218.95872  208.48165   218.00000  20.56539             13.61209
1217.65779  269.20532   263.00000  23.21420             14.45373
1219.61702  1257.83333  282.00000  20.21128             18.18746
1222.49012  1097.66798  253.00000  20.36095             15.86500
1217.38095  1424.59524  42.00000   8.62542              6.19461
1221.01786  404.23214   112.00000  14.53875             9.85829
1225.66165  192.84211   266.00000  24.34051             14.16395
1225.29818  551.46545   275.00000  20.85549             17.09395
1227.09265  1697.70288  313.00000  20.55522             19.44165
1229.44928  1411.13043  276.00000  20.37842             17.68322
1229.48136  1211.47119  295.00000  23.43560             16.38979
1233.02509  795.37993   279.00000  21.28818             17.07519
1230.69461  836.35329   167.00000  16.61711             12.82023
1224.88889  1444.96296  27.00000   6.65146              5.16233
1235.92182  1044.41368  307.00000  26.92068             15.10693
1237.05319  813.78723   282.00000  20.42414             17.66713
1239.31890  628.18504   254.00000  21.77732             15.03953
1241.22222  850.21825   252.00000  19.31353             16.79305
1245.33818  1238.38182  275.00000  32.15480             11.20978
1242.46696  1550.48458  227.00000  19.01356             15.33922
1245.20982  1456.88393  224.00000  19.02715             15.05624
1246.89272  1500.83908  261.00000  23.08797             14.57818
1240.91429  567.28571   35.00000   7.45680              5.98100
1253.88776  1581.36224  196.00000  16.55302             15.15708
1252.30822  1614.69178  146.00000  15.50009             12.08170
1257.25263  1158.46667  285.00000  22.55356             16.30272
1259.80328  1084.79235  183.00000  16.26853             14.61767
1261.10680  279.34466   206.00000  18.22102             14.46954
1260.04142  1604.47337  169.00000  15.44423             14.01074
1263.33898  1401.30085  236.00000  21.30673             14.28610
1264.25000  1309.96951  164.00000  16.19593             12.91978
1264.16477  249.58523   176.00000  16.45552             13.64591
1263.81507  1617.21918  146.00000  16.57764             11.45463
1276.34100  1384.62069  261.00000  22.14710             15.17593
1277.76125  1484.79452  511.00000  29.40711             23.94348
1284.66187  1233.01079  278.00000  31.47009             11.30750
1280.66272  1328.35503  169.00000  16.96178             12.72977
1279.98160  1508.73620  163.00000  16.78123             12.42875
1282.13181  1596.36676  349.00000  27.00480             17.90394
1282.40562  1723.55823  249.00000  18.93557             16.98837
1282.59649  1313.40351  171.00000  16.06519             13.78184
1283.23497  1617.43716  183.00000  18.20048             12.87236
1287.78824  1528.70588  255.00000  21.06638             15.53150
1288.89933  1898.44966  149.00000  15.28765             12.39145
1298.93200  1158.63200  250.00000  24.42468             13.56385
1298.35294  1636.23982  221.00000  18.90554             15.10603
1298.32020  1873.94581  203.00000  18.93056             13.71870
1301.00625  1084.46250  160.00000  15.45366             13.24618
1305.21788  1211.93296  179.00000  18.68280             12.40196
1305.33099  294.73239   142.00000  14.61118             12.49937
1306.26351  1317.81081  148.00000  15.99526             11.84051
1310.88750  1259.39583  240.00000  18.75468             16.49907
1313.42294  1618.80645  279.00000  27.83456             13.56723
1311.55932  981.42373   59.00000   9.44127              8.10531
1319.33096  1360.87900  281.00000  22.47437             16.01305
1318.88142  60.33597    253.00000  19.38338             16.70745
1317.73276  1300.75000  232.00000  18.73045             15.93932
1321.98734  1134.66139  316.00000  21.46311             18.89958
1322.57353  1070.00000  204.00000  17.64084             14.89863
1327.51014  759.20608   296.00000  24.05069             15.76404
1326.03125  1672.84375  224.00000  18.98167             15.09981
1324.79720  1866.25874  143.00000  14.75189             12.37902
1331.19925  1177.10902  266.00000  20.43316             16.85517
1338.19322  1727.52203  295.00000  21.61837             17.47250
1337.56906  1069.36464  181.00000  17.62033             13.08894
1339.57229  1153.66867  166.00000  15.87728             13.39663
1342.49701  1132.80240  167.00000  18.05032             11.85762
1346.79070  449.49225   258.00000  24.52141             14.23007
1346.38636  1271.94886  176.00000  17.95565             12.51838
1348.58571  931.60000   280.00000  21.76538             16.77215
1350.34500  460.84000   200.00000  22.51349             11.79275
1348.26974  1115.01974  152.00000  16.93950             11.44732
1353.39344  1674.60109  183.00000  16.62159             14.02459
1354.71782  1159.23762  202.00000  17.17526             15.00697
1354.92617  1344.76510  149.00000  15.33882             12.42611
1356.47568  1646.90811  185.00000  17.07080             13.83806
1365.32710  1212.49533  214.00000  24.66978             11.30246
1367.43403  1333.84722  288.00000  27.47525             13.84842
1362.75829  1385.20853  211.00000  19.24650             13.98844
1361.08000  1187.88000  75.00000   11.40953             8.40613
1371.24028  35.17668    283.00000  24.77764             14.61480
1369.50000  957.48148   162.00000  15.51941             13.38626
1376.78502  1167.35179  307.00000  22.90987             17.18575
1372.90206  929.29381   194.00000  16.65778             14.85303
1370.55882  1108.61765  68.00000   10.85175             7.94601
1370.82759  1150.17241  29.00000   7.81854              5.00915
1379.43830  1230.60000  235.00000  27.61816             10.93791
1380.06746  1185.48413  252.00000  21.03943             15.37868
1379.98113  1131.16981  212.00000  19.03537             14.20267
1382.25856  1289.80608  263.00000  20.85942             16.09349
1381.30435  1741.55731  253.00000  23.31826             13.83375
1384.56436  1302.28713  101.00000  12.20831             10.59552
1386.58113  924.87170   265.00000  28.64741             12.42208
1388.19643  943.92262   168.00000  16.77123             12.76578
1388.58824  1664.22995  187.00000  17.79451             13.47963
1391.59623  885.96981   265.00000  19.27695             17.64542
1390.81362  1106.37993  279.00000  22.37991             15.96822
1394.26339  496.80357   224.00000  17.93766             16.00933
1391.91257  1399.93989  183.00000  15.62211             14.90697
1398.45909  836.14545   220.00000  17.58439             16.01892
1398.26761  1736.76526  213.00000  20.43711             13.37562
1401.44922  1261.82812  256.00000  20.33203             16.05365
1400.70968  1086.11828  186.00000  16.72783             14.21437
1407.25387  1208.35913  323.00000  30.04365             15.07851
1411.77818  1394.28364  275.00000  25.42493             15.89215
1406.71676  864.54335   173.00000  16.49468             13.50569
1409.60096  1845.78365  208.00000  17.86603             14.86764
1410.02703  947.19459   185.00000  16.85826             14.13995
1412.53219  1095.51502  233.00000  20.04725             15.25666
1415.91870  1296.30081  246.00000  21.65921             14.94353
1415.64135  1113.34599  237.00000  21.92254             13.81564
1422.83276  1264.93174  293.00000  21.51382             18.09735
1421.41899  871.93296   179.00000  15.93437             14.35766
1422.51208  1320.09179  207.00000  22.04628             12.29227
1423.53093  488.34021   194.00000  16.68848             14.82540
1422.14019  1282.62617  107.00000  13.63202             9.98836
1423.16763  1869.72254  173.00000  15.42697             14.46875
1424.37722  385.96085   281.00000  26.84560             13.43820
1429.03101  1186.49612  387.00000  23.83483             21.05779
1424.52273  1333.11364  132.00000  14.23154             11.88480
1426.55921  1218.55263  152.00000  14.75050             13.17118
1436.91694  1244.21262  301.00000  38.57674             10.84648
1428.17447  90.40000    235.00000  18.36814             16.40520
1433.74219  1161.62500  256.00000  24.44971             13.65735
1426.66667  843.55556   36.00000   8.41377              5.39992
1433.24224  1402.15528  161.00000  16.46533             12.46173
1435.15289  1772.10744  242.00000  19.21280             16.18781
1435.22789  1651.86395  294.00000  27.05090             14.18318
1432.63636  884.75000   44.00000   8.24744              6.75213
1434.21429  646.60000   70.00000   10.02192             8.93360
1433.15789  853.84211   38.00000   8.05246              5.95086
1441.35849  1147.28774  212.00000  21.49292             12.76027
1438.56180  1280.78652  178.00000  16.86791             13.73375
1440.14201  427.42012   169.00000  15.77264             13.71240
1441.40769  1319.50000  130.00000  15.91001             10.46150
1445.17512  987.46083   217.00000  20.83261             13.80088
1446.91304  471.76522   230.00000  18.49541             15.93504
1447.41250  947.37500   240.00000  20.00926             15.36848
1451.31234  1729.71285  397.00000  24.56895             20.82517
1448.36559  412.30645   186.00000  16.74495             14.18496
1448.52571  436.39429   175.00000  17.35018             12.91707
1448.11465  933.26115   157.00000  15.84086             12.66502
1450.13478  966.31739   230.00000  19.16072             15.37274
1451.15625  72.16797    256.00000  19.18897             17.19023
1450.23182  1406.06818  220.00000  21.21885             13.53342
1449.90222  852.95111   225.00000  18.37158             15.74013
1448.61250  634.37500   80.00000   10.20921             9.98596
1453.14286  1283.07653  196.00000  17.43068             14.43904
1453.97046  1329.99156  237.00000  17.97777             16.90954
1459.09574  1108.41844  282.00000  26.37836             14.11050
1455.58650  1225.05907  237.00000  22.83619             14.05968
1458.47773  91.27935    247.00000  18.38601             17.12025
1456.82320  817.05525   181.00000  16.01885             14.49546
1457.20606  1241.51515  165.00000  15.35605             13.73845
1462.31847  923.35032   314.00000  26.73624             15.32186
1459.29185  1147.33906  233.00000  18.80890             16.25236
1459.32099  497.30864   162.00000  15.08760             13.73853
1461.84932  262.26370   292.00000  23.73590             15.98655
1458.34375  844.43750   32.00000   6.75174              5.99674
1471.55870  1304.91903  247.00000  21.95770             14.42947
1467.72917  1786.82500  240.00000  21.49516             14.29082
1466.70000  803.58000   50.00000   8.52139              7.45678
1475.82186  1189.71660  247.00000  22.29489             14.19569
1476.14857  178.20000   175.00000  17.16147             13.05764
1472.50000  816.66667   30.00000   6.34560              5.96285
1477.60086  1226.98712  233.00000  20.46133             14.73547
1478.15247  1813.36771  223.00000  19.21291             14.79748
1479.28696  1576.59565  230.00000  19.55923             15.06186
1482.61355  391.68924   251.00000  19.89064             16.19937
1481.46032  659.14286   126.00000  14.17846             11.35643
1483.11976  1077.61677  167.00000  15.69091             13.98482
1480.66667  620.13043   69.00000   10.69908             8.22165
1486.31081  1279.96396  222.00000  18.68343             15.18157
1487.19681  1408.76064  188.00000  17.69956             13.71743
1483.26582  533.60759   79.00000   11.27274             8.91958
1485.27500  1023.55833  120.00000  12.92141             12.12872
1489.92116  303.33610   241.00000  19.93728             15.50266
1490.24742  235.74742   194.00000  17.83747             13.99520
1487.00000  701.73214   56.00000   9.21207              7.78211
1492.54375  1070.74375  160.00000  15.52297             13.73522
1493.80660  938.61792   212.00000  19.13108             14.44220
1493.64286  1173.79670  182.00000  17.56478             13.27919
1494.92647  1016.63235  204.00000  19.88165             13.30046
1494.48958  555.53125   192.00000  19.14303             12.82031
1495.95960  574.82828   198.00000  17.74534             14.23891
1497.24229  1094.66079  227.00000  17.07584             17.00314
1502.65407  249.50872   344.00000  24.77890             17.73571
1501.03947  411.96930   228.00000  18.27794             15.94452
1501.01931  1115.08880  259.00000  20.99696             15.90560
1502.10400  1264.53600  250.00000  20.74890             15.38133
1501.05000  1748.55455  220.00000  17.58369             15.92136
1503.39320  286.96602   206.00000  17.55979             15.05964
1504.72038  356.08057   211.00000  18.72860             14.43660
1509.28369  153.61702   282.00000  26.98643             14.28033
1503.19632  225.31902   163.00000  15.93068             13.06023
1508.36462  1204.60650  277.00000  25.01756             14.36153
1507.14650  998.97452   157.00000  17.61942             11.48045
1504.18519  1157.00000  162.00000  18.36936             11.37436
1503.05172  541.79310   58.00000   9.57229              7.68712
1506.92130  123.56944   216.00000  20.31646             13.57116
1511.40864  1397.47176  301.00000  23.41112             16.46336
1512.56957  1126.59565  230.00000  20.24020             14.78622
1514.49587  1310.94215  242.00000  18.66508             16.67256
1513.54787  705.35106   188.00000  16.27176             14.84773
1518.76023  1159.72515  171.00000  17.23549             12.67277
1519.23129  494.07483   147.00000  15.58515             12.07999
1523.33617  1682.37447  235.00000  20.18081             14.93881
1522.59829  1228.98718  234.00000  22.45491             13.32548
1523.68142  240.37611   226.00000  17.82298             16.26585
1521.92000  281.93333   150.00000  14.58640             13.19280
1524.98469  1369.57653  196.00000  16.78146             15.15362
1526.88136  346.93644   236.00000  19.59241             15.43659
1524.25882  456.45882   85.00000   12.98398             8.36587
1536.57769  1247.73307  251.00000  30.89655             10.46829
1528.58577  1353.01255  239.00000  20.33304             15.03202
1531.18386  78.26457    223.00000  19.24702             14.78755
1529.76163  588.70930   172.00000  17.42743             12.67025
1529.22152  444.55696   158.00000  15.03086             13.42285
1528.64815  1165.45370  108.00000  13.90791             10.13791
1528.52817  1317.00000  142.00000  14.44594             12.59245
1530.84173  1458.60072  278.00000  22.32244             16.06445
1532.37500  269.89286   224.00000  17.81810             16.18894
1531.81250  1287.24432  176.00000  18.59619             12.08796
1533.13559  1303.93785  177.00000  16.56854             13.68647
1532.08642  1748.68519  162.00000  16.07266             12.95058
1534.75000  738.93333   60.00000   14.28861             5.54659
1540.40201  1178.03518  199.00000  18.42656             14.21044
1536.97531  608.56790   81.00000   10.40931             9.97068
1544.24164  1377.79182  269.00000  23.23739             15.52317
1542.90667  1409.63111  225.00000  17.99036             15.93777
1542.19429  304.74286   175.00000  16.65313             13.39871
1540.50000  957.13043   46.00000   7.98912              7.30021
1545.04737  1272.96316  190.00000  16.89771             14.57500
1542.24528  1532.34906  106.00000  12.40593             10.90662
1545.00508  420.43147   197.00000  17.45648             14.42318
1545.35270  1217.71784  241.00000  24.16535             12.93424
1548.30872  996.03020   298.00000  24.77410             16.00523
1547.51613  1259.92903  155.00000  15.45275             12.83413
1552.80541  193.61622   185.00000  16.35456             14.66337
1554.31474  318.05976   251.00000  19.07178             16.88051
1554.73469  669.95918   196.00000  18.29252             13.81756
1555.00000  1389.16942  242.00000  19.72370             15.67028
1552.64458  1177.30723  166.00000  20.42301             10.76342
1556.04505  1353.63063  222.00000  19.32044             14.80203
1557.94758  67.62903    248.00000  18.59206             17.12268
1555.99265  1162.42647  136.00000  13.36968             13.01084
1558.69178  154.26712   146.00000  16.22601             11.50224
1558.53886  211.87565   193.00000  20.57083             11.97793
1561.34848  431.64646   198.00000  17.09084             14.76963
1560.77477  1744.30631  222.00000  19.41697             14.64727
1562.13389  348.20084   239.00000  18.32150             16.71598
1560.44231  183.24038   104.00000  12.29207             10.84526
1569.36149  1428.67568  296.00000  28.37886             13.41245
1563.92437  479.52941   119.00000  14.62905             10.52743
1566.53140  1773.05797  207.00000  16.87795             15.72077
1567.24783  1332.87391  230.00000  18.73539             15.64471
1569.04564  395.86722   241.00000  19.58993             15.72330
1568.97934  464.82231   242.00000  18.11564             17.09978
1572.66397  1174.44939  247.00000  22.29277             14.28522
1571.17407  1527.61111  270.00000  20.55723             16.82259
1571.15596  1789.19266  218.00000  19.90463             14.02608
1571.57714  250.58286   175.00000  15.60081             14.60561
1568.23077  749.79487   39.00000   7.67053              6.46464
1573.57229  144.21687   166.00000  15.85669             13.31795
1574.23490  160.88591   149.00000  16.25012             11.69969
1573.53933  239.97753   89.00000   11.82514             9.94584
1570.87273  492.45455   55.00000   9.76472              7.19557
1576.01767  1474.51943  283.00000  23.50633             15.46521
1579.13853  1591.51082  231.00000  17.64777             16.73800
1580.66502  271.42857   203.00000  18.25788             14.18680
1576.90000  1020.15000  40.00000   8.84799              5.83036
1581.65502  1229.90393  229.00000  23.41204             12.74983
1582.16667  356.51351   222.00000  18.54210             15.28100
1581.02083  427.36458   192.00000  18.02483             13.59431
1581.68050  1131.81743  241.00000  21.26981             14.53459
1581.62500  490.55000   80.00000   12.24482             8.28097
1584.82906  17.14103    234.00000  21.15127             14.31903
1586.94144  1091.91892  222.00000  23.85377             11.89102
1586.04023  1545.36207  174.00000  15.97452             13.94164
1586.31522  1627.29348  184.00000  20.53808             11.48544
1586.56250  248.73864   176.00000  16.39626             13.72483
1585.91724  621.93103   145.00000  15.81554             11.96547
1588.94253  1565.48276  261.00000  19.63719             17.08019
1590.05629  197.39735   302.00000  20.38070             19.30473
1591.55235  993.59928   277.00000  21.92234             16.19166
1590.13966  1294.08380  179.00000  17.86527             13.01331
1587.86364  582.04545   66.00000   10.65111             7.88817
1591.76923  1799.44872  156.00000  14.69796             13.68506
1590.65385  602.01923   52.00000   10.50433             6.27919
1598.52560  1390.30034  293.00000  22.70782             16.46737
1595.02174  1523.70109  184.00000  16.49862             14.24054
1598.61979  432.46354   192.00000  18.02948             13.56541
1602.47331  391.65836   281.00000  19.83036             18.09256
1597.96471  582.22353   85.00000   10.80968             10.01539
1598.10909  612.05455   55.00000   9.13978              7.68524
1603.91925  1293.62733  161.00000  17.84676             11.92362
1606.63317  275.38693   199.00000  20.40317             12.89410
1606.33824  479.21324   136.00000  13.62675             12.84710
1609.56345  1479.53299  197.00000  18.16572             13.92788
1610.04785  157.63636   209.00000  18.36278             14.55515
1610.58744  177.90583   223.00000  19.57483             14.57458
1611.29614  1173.61803  233.00000  18.57022             16.02497
1609.58772  263.45614   114.00000  13.48953             10.82807
1611.76571  1501.52000  175.00000  16.20239             13.79620
1609.79310  456.87931   58.00000   10.00021             7.44927
1614.92778  123.63889   180.00000  18.99547             12.14094
1619.42222  1288.71556  225.00000  20.12746             14.44870
1619.16842  1782.80000  190.00000  16.86186             14.73037
1621.74699  1351.25703  249.00000  19.94058             15.95686
1622.19383  433.77093   227.00000  22.17476             13.04761
1624.46209  1201.00361  277.00000  20.31915             17.46055
1628.07184  1615.29598  348.00000  26.83421             16.59261
1626.44237  1373.66355  321.00000  22.39915             18.35483
1620.97436  1867.43590  78.00000   11.72716             8.72001
1627.10270  401.70270   185.00000  18.94669             12.47363
1626.23864  511.64773   88.00000   10.95572             10.28605
1627.61654  628.11278   133.00000  13.73254             12.34667
1630.84979  1144.93991  233.00000  17.84572             16.75716
1630.76190  493.78571   168.00000  19.24062             11.17670
1635.30500  1316.10500  200.00000  19.65552             12.99829
1632.32484  1836.87898  157.00000  14.48536             13.91592
1639.33978  712.74033   362.00000  26.54562             17.80390
1636.25641  452.86325   117.00000  16.69602             9.04090
1642.79510  1040.60134  449.00000  38.33398             16.52060
1642.46012  1247.35276  326.00000  24.27758             17.30899
1638.93277  1266.97899  238.00000  20.07650             15.26068
1640.71823  347.52486   181.00000  18.06021             12.83626
1644.28058  368.79137   139.00000  15.72629             11.28543
1648.24815  1347.69259  270.00000  20.83931             16.56313
1647.91753  104.88144   194.00000  18.37842             13.49925
1642.78873  533.53521   71.00000   10.70570             8.55672
1648.97710  634.17557   262.00000  20.58495             16.28569
1647.01143  500.12000   175.00000  16.02387             13.93568
1646.44706  609.47059   85.00000   10.70393             10.07747
1648.40206  295.22680   97.00000   11.70909             10.72347
1651.40000  461.41053   190.00000  16.30090             15.10151
1655.02062  732.55670   194.00000  16.36607             15.35326
1652.74797  284.21138   123.00000  14.23356             11.05932
1654.41727  405.38849   139.00000  15.61405             11.37873
1658.49488  1626.09556  293.00000  25.97677             14.41923
1658.72772  1582.68317  202.00000  16.82517             15.34239
1657.05882  536.63529   85.00000   13.59950             8.34404
1659.35000  652.56667   180.00000  16.09616             14.32458
1660.94717  1446.46415  265.00000  21.03253             16.14736
1658.30769  603.50549   91.00000   11.47527             10.10879
1661.00730  394.65693   137.00000  14.70643             11.96578
1662.63590  346.38462   195.00000  16.18629             15.39957
1661.73438  363.48438   128.00000  14.66861             11.23384
1661.48333  588.33333   120.00000  13.87219             11.14362
1661.98333  746.86111   180.00000  15.29084             15.00849
1662.06044  1652.10440  182.00000  17.66230             13.17621
1661.24528  478.85849   106.00000  13.99904             9.65970
1666.23664  1324.22519  262.00000  19.77730             16.91307
1664.96169  1504.50192  261.00000  20.08813             16.62060
1666.92029  383.46377   138.00000  14.82927             11.89198
1664.42105  574.57895   76.00000   10.24952             9.42620
1671.18257  1109.50622  241.00000  19.96251             15.50644
1670.27557  1405.14489  352.00000  28.23111             16.49239
1671.03906  1460.44531  256.00000  20.62320             16.10082
1668.75155  1689.60870  161.00000  14.92640             14.00802
1671.31905  1232.57143  210.00000  17.88061             14.98895
1671.74074  449.88360   189.00000  17.14040             14.07253
1671.00775  540.94574   129.00000  15.33908             10.70888
1675.74684  527.99367   158.00000  18.50892             11.00466
1676.72159  1370.52841  176.00000  15.79324             14.32583
1681.75000  495.18750   160.00000  17.48024             11.76770
1684.48198  669.97748   222.00000  20.08725             14.27601
1684.00909  625.15455   220.00000  16.97909             16.56447
1686.96774  105.35484   155.00000  15.12659             13.14412
1689.28464  163.80899   267.00000  19.92692             17.80345
1691.14113  184.08065   248.00000  21.68322             14.75157
1695.17834  1346.44904  314.00000  25.93714             15.48744
1690.30263  502.25000   76.00000   10.57098             9.19380
1690.54217  654.10843   83.00000   10.93597             9.70132
1692.43860  550.50877   57.00000   10.00216             7.33895
1698.47556  1408.89333  225.00000  20.59404             13.96744
1698.46154  294.41259   143.00000  14.10766             12.94378
1704.40239  222.98406   251.00000  18.66780             17.37408
1704.35000  539.60000   160.00000  16.66902             12.33790
1701.32857  488.84286   70.00000   9.92511              9.01735
1709.58039  1212.20392  255.00000  22.23644             14.63823
1708.66890  1394.27425  299.00000  21.22460             18.26643
1710.71483  662.09506   263.00000  19.02163             17.77730
1711.80420  292.74825   143.00000  16.56914             11.00177
1714.34061  902.34498   229.00000  19.48536             15.04815
1713.71812  142.13423   149.00000  14.88444             12.75195
1711.88095  463.38095   42.00000   8.22830              6.49056
1719.65089  317.08876   169.00000  15.58040             13.84286
1718.28302  510.36792   106.00000  13.48351             10.00907
1721.98529  466.34314   204.00000  17.46301             15.06258
1724.85305  1353.23297  279.00000  20.55492             17.42639
1722.98286  648.65143   175.00000  17.01900             13.38888
1722.00000  489.50000   60.00000   9.17969              8.24621
1722.86842  630.75000   76.00000   10.10675             9.59976
1727.04933  882.52915   223.00000  17.95562             15.96523
1727.40972  818.04167   144.00000  14.56988             12.61412
1727.65746  899.71823   181.00000  16.95561             13.75116
1729.60366  530.66463   164.00000  18.08097             11.56466
1725.88889  602.59259   54.00000   8.75324              7.84631
1728.66935  610.98387   124.00000  13.79451             11.65458
1730.60000  757.49268   205.00000  19.34684             13.53360
1729.34810  180.95570   158.00000  15.61870             12.97163
1733.97531  1210.75309  243.00000  21.54725             14.85562
1732.21143  947.19429   175.00000  15.76860             14.33310
1737.90661  803.96498   257.00000  25.23929             13.40487
1736.17089  638.34177   158.00000  15.30133             13.14337
1738.94619  735.72197   223.00000  18.47588             15.37907
1740.26437  908.86207   261.00000  19.67657             17.03208
1740.30662  1282.90941  287.00000  21.37732             17.23041
1742.03200  463.08000   250.00000  22.57970             14.12595
1742.81395  1061.47442  215.00000  23.56478             11.76622
1742.91946  191.26174   149.00000  17.12875             11.08161
1747.09326  311.14508   193.00000  19.24901             12.85974
1750.62329  160.92123   292.00000  22.45981             16.91828
1747.26752  482.50955   157.00000  16.81181             11.98991
1749.58962  601.49528   212.00000  17.15759             15.78085
1750.80841  653.24299   214.00000  22.12300             12.63854
1749.44335  693.79803   203.00000  16.50582             15.87192
1752.45378  951.60924   238.00000  18.26710             16.65076
1756.10870  783.53623   276.00000  21.61966             16.46174
1754.33725  328.39216   255.00000  21.78657             14.99799
1756.09424  637.79581   191.00000  19.49284             12.68032
1756.16580  989.65803   193.00000  16.73458             14.79411
1754.76744  543.11628   43.00000   9.03170              6.06536
1758.10286  812.82857   175.00000  15.83796             14.09659
1758.13600  491.75200   125.00000  15.23391             10.47321
1761.13253  366.83735   166.00000  15.87690             13.40528
1765.45977  972.76245   261.00000  18.99516             17.68917
1763.91257  433.84153   183.00000  17.69168             13.20083
1769.75336  1191.60090  223.00000  24.37756             11.71360
1766.86500  663.84000   200.00000  16.68728             15.47493
1768.55093  226.59259   216.00000  19.31604             14.25329
1772.40078  1013.41245  257.00000  21.75365             15.09685
1774.20192  355.55769   208.00000  23.21065             11.54683
1775.57386  374.49432   176.00000  18.29358             12.26164
1779.00000  678.04598   174.00000  16.51837             13.50799
1778.54118  468.44706   85.00000   11.49276             9.39010
1783.46739  1053.82065  184.00000  17.28082             13.66900
1783.19118  209.53676   136.00000  16.17609             10.71934
1788.12707  440.43094   181.00000  21.38963             10.78084
1789.81690  1339.78873  213.00000  19.36769             14.03880
1793.03629  832.25403   248.00000  21.94527             14.55789
1789.47682  1014.37748  151.00000  14.26152             13.60035
1790.28571  397.75369   203.00000  18.81012             13.80516
1792.84348  415.06957   115.00000  16.91031             8.77386
1796.85944  603.59839   249.00000  20.06543             15.98016
1796.46043  278.29496   139.00000  14.79766             12.05804
1802.11000  484.10000   100.00000  11.57041             10.99873
1804.90397  1313.65894  302.00000  24.61716             15.73582
1807.34130  1145.54266  293.00000  22.64389             16.86231
1809.23039  1060.07843  204.00000  20.09525             12.96215
1809.34483  698.43103   174.00000  17.15488             12.92802
1812.52075  1243.70943  265.00000  23.56994             14.44855
1813.86454  632.69323   251.00000  19.42674             16.46019
1815.00738  1081.39483  271.00000  23.99206             14.52864
1821.01068  286.01423   281.00000  25.87837             14.22839
1819.80469  1108.46875  256.00000  21.48291             15.40645
1821.48198  1223.93243  222.00000  18.29654             15.52115
1819.80198  580.50495   101.00000  12.72810             10.13675
1831.48876  538.77528   178.00000  16.58397             13.66634
1838.61350  298.93252   163.00000  16.68641             12.56478
1839.60417  670.04861   144.00000  14.76121             12.44569
1839.91304  1127.76812  138.00000  14.48199             12.31769
1843.73656  1103.32258  186.00000  16.56474             14.50234
1846.72464  325.81159   207.00000  18.59002             14.23041
1852.40310  831.72868   258.00000  21.17255             15.60485
1852.43750  1133.83333  144.00000  14.57167             12.61584
1856.71483  1198.41065  263.00000  22.67219             14.79477
1856.77957  302.19355   186.00000  16.90708             14.07811
1860.24750  1015.18500  400.00000  29.70580             18.50615
1858.60625  444.18750   160.00000  14.97101             13.75229
1857.97531  924.21605   162.00000  17.88957             11.77135
1864.26190  1124.50000  168.00000  14.81852             14.71247
1873.43333  828.12857   210.00000  19.47972             13.81425
1873.90984  1154.34836  244.00000  20.30721             15.41251
1872.34437  680.56291   151.00000  14.88119             13.06656
1882.89286  1128.27143  280.00000  22.49922             16.09507
1890.82323  841.19192   198.00000  18.88422             13.44326
1890.40223  674.72067   179.00000  16.49235             13.88895
1892.89919  216.02419   248.00000  24.48337             13.04357
1896.97382  1421.12565  191.00000  19.43652             12.68259
1899.50388  1113.92636  258.00000  19.40247             17.09027
1909.77600  858.97200   250.00000  24.09953             13.26037
1907.54777  144.42675   157.00000  17.00818             12.14250
1914.85714  1450.32143  196.00000  20.09518             12.49980
1918.08070  1069.04912  285.00000  21.77763             16.79199
1915.40107  1467.66845  187.00000  17.09205             14.00381
1918.48039  990.52941   204.00000  17.50685             14.95615
1919.61024  1113.06299  254.00000  19.22828             16.88496
1921.76364  907.00909   220.00000  20.00849             14.08809
1918.61290  591.55914   93.00000   11.14454             10.74492
1922.84153  667.15301   183.00000  17.34568             13.45590
1923.41667  497.63095   84.00000   11.39205             9.92004
1929.77586  798.46121   232.00000  21.59098             14.00129
1926.72258  895.27742   155.00000  15.31738             12.98432
1932.79781  1461.78142  183.00000  16.99649             13.73186
1934.86458  962.87500   192.00000  17.15536             14.27060
1945.73746  928.70501   339.00000  29.96720             15.91875
1943.22018  1166.34404  218.00000  18.13954             15.37165
1945.20814  1144.81900  221.00000  20.49724             13.83562
1945.65401  1043.85654  237.00000  20.55768             14.72727
1947.38235  1001.11765  204.00000  18.06436             14.41883
1948.53000  507.62000   100.00000  13.81271             9.78184
1951.28631  1095.79253  241.00000  19.37770             15.97711
1949.94565  1128.13587  184.00000  17.31492             13.58799
1956.07660  569.15745   235.00000  30.55590             10.36727
1957.75349  140.30698   215.00000  18.24946             15.16032
1960.90190  799.78165   316.00000  23.70682             17.20484
1956.10156  1157.64062  128.00000  14.02195             11.72726
1964.07664  875.15328   274.00000  21.12547             16.88486
1963.41589  1032.02336  214.00000  18.29674             15.68691
1965.08523  1047.57386  176.00000  19.82910             11.60578
1975.28701  827.69789   331.00000  32.93715             15.56907
1967.54545  910.84416   231.00000  23.02719             13.19098
1969.17829  1103.58140  129.00000  13.34163             12.30706
1974.43750  664.87946   224.00000  22.37546             12.79401
1975.86220  926.08268   254.00000  20.07235             16.13606
1985.47516  1092.40373  322.00000  24.21773             17.14321
1985.84167  339.28333   240.00000  22.66322             14.78828
1989.54082  865.21429   98.00000   12.17764             10.28992
1999.75806  653.99597   248.00000  20.91132             15.18188
1999.56805  1014.79290  169.00000  18.68993             11.57673
2002.58192  155.52542   177.00000  16.65565             13.59409
2004.42180  590.63033   211.00000  18.44255             14.62632
2004.82955  793.90909   176.00000  16.80306             13.42881
2009.10995  1023.70681  191.00000  18.29444             13.39204
2011.12069  945.70115   174.00000  15.94993             14.11389
2016.91866  521.52153   209.00000  17.07759             15.62765
2016.15686  613.03922   153.00000  16.86934             11.59110
2020.33910  903.38062   289.00000  23.86142             16.53886
2023.67826  1133.93913  230.00000  20.07667             14.60237
2027.31507  134.34247   146.00000  18.04551             11.01389
2029.74468  929.73404   188.00000  19.54178             12.31965
2029.57071  832.56061   198.00000  17.83517             14.19882
2036.01744  400.79651   172.00000  17.31298             12.73204
2036.35088  914.39474   114.00000  13.99021             10.75830
2037.35366  1067.64634  82.00000   12.26731             8.77071
2038.74372  1106.18090  199.00000  17.45775             14.62098
2038.60294  152.66176   68.00000   10.32301             8.57631