# Filename: Nuclei_416_ctrl_60x_001.npz
# Voxel size (nm): (108, 108)
# Area quantity: voxels
# Num nuclei detected: 1489
Y           X           AREA       MAJOR_AXIS_LENGTH    MINOR_AXIS_LENGTH
69.76538    561.66154   260.00000  26.07594             13.00803
69.09524    1535.03175  126.00000  16.39273             10.39259
75.84362    589.34568   243.00000  19.60498             15.82959
89.85039    612.37795   127.00000  14.28368             11.37246
108.38000   655.11000   200.00000  19.37182             13.19956
135.54618   709.02410   249.00000  21.52374             14.80674
149.59813   1061.02336  214.00000  21.98106             12.47640
190.89404   995.35099   151.00000  16.76995             12.05103
193.20635   905.01587   252.00000  20.31876             15.92201
195.49147   970.78157   293.00000  21.24752             17.78436
225.34921   591.21825   252.00000  22.09373             14.59761
231.88031   608.12741   259.00000  20.78057             16.16479
234.54506   652.94421   233.00000  21.28746             13.96247
236.49032   1041.54839  155.00000  15.29532             12.95058
238.36364   704.06061   231.00000  22.25627             13.28245
246.56679   760.60650   277.00000  21.92281             16.22508
259.86452   818.99355   310.00000  21.78288             18.29505
261.52288   865.60784   306.00000  23.22895             17.08377
273.04839   1023.95699  186.00000  17.35890             13.78558
290.88688   994.28959   221.00000  19.53740             14.53289
294.51931   942.13305   233.00000  18.95784             15.66008
308.47802   956.32967   182.00000  16.66921             14.25343
311.73391   973.05579   233.00000  19.49927             15.36688
318.16354   817.27882   373.00000  23.81330             21.38189
321.41346   869.75481   208.00000  17.99094             14.75746
320.02041   954.27211   147.00000  16.32820             11.71347
326.21012   741.84436   257.00000  19.14027             17.33700
332.48387   927.30968   155.00000  16.76529             11.79145
338.76733   938.68317   202.00000  17.12586             15.53007
345.40357   702.50000   280.00000  20.55122             17.41957
356.03846   874.39510   286.00000  26.79651             13.68524
359.91713   963.84530   181.00000  18.85536             12.23545
361.19753   906.43827   162.00000  15.06452             13.73397
363.75417   1020.17083  240.00000  19.01743             16.16488
364.25463   741.95370   216.00000  17.84857             15.42441
363.15748   241.62205   127.00000  15.47024             10.51158
371.46996   661.21555   283.00000  23.60073             15.40320
369.40373   858.59006   161.00000  16.74409             12.29264
377.46087   728.62609   230.00000  17.74365             16.56650
381.23735   477.66537   257.00000  22.00519             14.99536
389.35018   942.75090   277.00000  23.27459             15.29975
390.58148   985.75185   270.00000  23.83780             14.63637
391.63587   847.02717   368.00000  30.56446             15.82052
389.37561   694.98537   205.00000  16.31923             16.06048
391.76860   631.39669   242.00000  19.51983             15.92540
395.53712   753.86026   229.00000  25.78394             11.64645
400.30943   1052.92453  265.00000  26.65088             13.98495
404.12500   412.13971   272.00000  22.42536             15.51317
405.76667   817.18333   180.00000  18.41582             12.76731
413.17172   588.21717   198.00000  18.62894             13.64259
413.41553   1010.52055  219.00000  17.99745             15.52809
417.15207   844.40092   217.00000  16.72405             16.63876
419.09020   669.90980   255.00000  26.68730             12.74540
419.60952   91.42381    210.00000  16.93795             15.78854
421.35662   572.69485   272.00000  22.09649             15.86291
427.68210   966.02160   324.00000  33.12503             12.57360
425.21923   504.31154   260.00000  23.85671             13.99714
429.02688   639.02688   186.00000  17.53754             13.61304
429.20690   293.27586   58.00000   11.18432             6.80073
433.33668   463.40201   199.00000  18.50233             13.84037
439.63208   738.48113   212.00000  21.56394             12.85310
439.80263   604.69298   228.00000  22.54917             13.00742
438.27136   93.06030    199.00000  17.87670             14.21130
437.50725   821.13043   69.00000   10.07275             8.71480
447.40260   760.92641   231.00000  23.33379             12.97506
447.70219   994.97806   319.00000  25.97793             16.01986
443.13750   366.74375   160.00000  16.93973             12.04129
443.30469   865.31250   256.00000  29.80323             11.26252
447.33478   444.48261   230.00000  18.06872             16.24491
447.50233   468.11628   215.00000  17.76018             15.51673
450.61165   1033.35922  206.00000  19.61842             13.48999
450.54698   296.42282   298.00000  26.83727             14.25391
448.42614   783.97727   176.00000  19.17262             11.79933
449.52475   829.25248   202.00000  18.19094             14.18060
456.29808   375.29327   208.00000  17.64815             15.12432
456.93640   1144.38869  283.00000  21.66642             16.77452
453.84615   230.32967   91.00000   11.58980             10.28808
457.01792   676.95699   279.00000  23.70894             15.22595
458.50888   80.46154    169.00000  16.11659             13.51286
456.98851   413.54023   174.00000  17.35823             12.83124
460.29316   546.70684   307.00000  24.54057             16.05813
460.70647   808.56716   201.00000  20.65896             12.50176
461.95187   641.40642   187.00000  17.38143             13.85862
464.38942   1088.61538  208.00000  21.96032             12.19510
465.81053   67.45263    190.00000  17.86442             13.67439
469.00971   570.71521   309.00000  21.35268             18.64349
464.78351   903.37113   97.00000   13.11763             9.40196
466.54190   289.18436   179.00000  17.09357             13.39882
469.69820   488.92793   222.00000  17.27486             16.39828
471.04651   662.58527   258.00000  21.64841             15.29661
472.73529   181.64706   204.00000  17.92114             14.52897
477.10732   855.00976   205.00000  23.15285             11.62477
479.52412   643.10289   311.00000  22.92257             17.45028
479.50993   1096.57616  151.00000  17.59794             11.20990
487.40385   1006.85897  312.00000  39.87030             11.13304
484.35802   1048.65432  162.00000  17.68078             11.79537
486.84211   504.10150   266.00000  20.14837             16.85068
485.22819   614.18121   149.00000  15.95565             12.16242
486.25616   57.69458    203.00000  17.20788             15.12597
488.87225   903.50661   227.00000  18.92539             15.33529
490.16165   476.65414   266.00000  20.75741             16.44314
490.47059   857.03209   187.00000  17.80613             13.55292
491.78244   454.81298   262.00000  20.75632             16.46588
492.12791   623.40698   172.00000  18.14740             12.36055
493.24057   776.29717   212.00000  27.16486             10.30641
491.41243   264.31073   177.00000  17.78321             12.78548
492.32735   390.76682   223.00000  19.48183             14.71795
493.80693   692.52970   202.00000  18.79501             14.00984
494.74038   406.70192   208.00000  18.26803             14.55264
494.67895   590.58947   190.00000  18.19832             13.86445
495.82036   811.24551   167.00000  16.25831             13.10509
499.69286   1063.16786  280.00000  27.52629             13.48650
495.68382   176.02206   136.00000  14.99494             11.61707
496.26702   282.74346   191.00000  16.36851             15.15966
496.72131   318.56967   244.00000  22.67892             13.73109
497.79100   530.02572   311.00000  21.87036             18.14837
498.07586   65.65517    145.00000  14.43683             12.88292
505.25498   581.64542   251.00000  21.70360             14.76420
503.41398   709.17742   186.00000  16.43530             14.39873
505.29362   772.59574   235.00000  25.95785             11.70052
506.69286   456.42857   140.00000  15.87876             11.25241
509.61250   630.87083   240.00000  18.13100             16.92525
517.46705   932.77077   349.00000  33.22242             13.87861
508.97253   1152.78571  182.00000  15.36270             15.17911
513.63084   749.06075   214.00000  19.99106             14.30987
513.49167   52.06667    120.00000  13.31275             11.64038
517.10615   518.86034   179.00000  17.51456             13.12294
521.80923   223.22154   325.00000  25.29838             16.60407
515.47826   506.65217   138.00000  14.90120             11.88639
520.41290   671.05161   155.00000  14.71132             13.53443
518.20000   711.10000   30.00000   7.28546              5.26518
522.83019   1154.66509  212.00000  17.29764             15.93051
527.63158   1103.35673  342.00000  25.83793             17.32542
527.45420   478.46565   262.00000  19.06393             17.80800
526.94389   400.60396   303.00000  22.96923             16.81955
530.80859   915.92969   256.00000  22.76938             14.62284
531.79144   542.80749   374.00000  31.61473             15.96891
536.98658   1049.20134  298.00000  30.78577             12.75431
534.16746   325.62201   209.00000  18.39911             14.56814
528.49254   654.50746   67.00000   10.80783             7.91528
536.26573   348.02797   143.00000  15.98582             11.40161
544.89976   871.28878   419.00000  30.04469             18.03188
539.90071   444.36170   141.00000  15.05651             11.97341
538.36364   846.87013   77.00000   11.29763             8.81874
538.34545   965.78182   55.00000   9.57571              7.36812
540.79592   35.18367    147.00000  15.13869             12.38971
544.10112   570.67416   178.00000  18.02636             12.77715
544.82397   590.56554   267.00000  23.49555             14.60624
542.94966   782.76174   298.00000  23.64040             16.31469
549.67220   179.93361   241.00000  18.48804             16.73332
549.07104   851.73770   183.00000  17.59959             13.44252
548.63248   491.85897   234.00000  19.03290             15.67798
552.07727   434.12273   220.00000  21.11515             13.45955
549.08333   729.48333   180.00000  16.88899             13.58357
552.88800   912.33600   250.00000  21.46832             15.06308
558.08280   401.40764   314.00000  23.64092             17.61498
556.75000   448.01500   200.00000  17.55939             14.65961
557.45455   1007.95105  286.00000  28.56719             12.93495
558.15976   577.85207   169.00000  16.83267             13.01514
558.34831   115.98876   178.00000  15.96324             14.55081
560.13744   515.80095   211.00000  17.24372             15.64876
562.22394   640.08494   259.00000  19.85425             17.04715
566.78788   539.43333   330.00000  22.53201             19.36076
568.42960   163.58484   277.00000  22.45468             16.51159
568.25424   197.38136   236.00000  22.23132             13.69030
568.98529   240.03431   204.00000  17.02210             15.36836
570.70391   433.87709   179.00000  17.46469             13.08757
576.78571   1172.93233  266.00000  23.15250             15.03066
576.89216   948.43137   204.00000  19.27856             13.54430
576.42857   117.95767   189.00000  17.05625             14.38254
577.02913   348.82039   206.00000  19.20544             13.70210
574.57764   572.93789   161.00000  17.24351             12.05655
575.79923   817.82239   259.00000  24.53130             13.48588
577.60248   22.61491    161.00000  15.93242             12.91500
579.39850   1026.66917  266.00000  24.70347             13.91499
583.19749   261.18182   319.00000  25.78025             15.90430
582.30328   378.75410   244.00000  20.53666             15.29823
583.01460   83.02555    274.00000  19.08244             18.36034
582.48693   670.48039   306.00000  24.48389             16.11744
582.37815   796.63025   238.00000  19.57160             15.53440
583.38489   421.94604   278.00000  20.95213             17.01548
581.92273   738.97273   220.00000  17.59947             16.00131
585.30827   895.82707   266.00000  23.08246             14.81103
582.47531   764.66667   162.00000  16.45146             12.55531
585.61345   877.26471   238.00000  23.22963             13.59183
586.58696   694.02609   230.00000  17.27899             16.96596
589.17308   570.60256   156.00000  18.44649             10.86997
592.64091   1020.78182  220.00000  21.83538             12.85552
597.07951   314.66361   327.00000  28.91100             15.33531
593.71910   547.89888   267.00000  23.82833             14.57147
598.79252   1087.12585  294.00000  30.18735             12.70061
599.57090   348.66791   268.00000  20.80425             16.47325
598.95652   644.44928   207.00000  19.37373             14.36002
600.45517   31.40690    145.00000  14.02958             13.30051
601.52290   420.01527   262.00000  20.98877             16.41382
604.80093   227.40278   216.00000  17.96587             15.35981
603.06140   659.96491   228.00000  18.09180             16.31843
603.50769   706.00513   195.00000  16.28122             15.34317
605.66527   994.60251   239.00000  19.47169             15.66801
607.33884   470.38430   242.00000  21.80809             14.23796
614.35938   1179.74219  256.00000  28.88100             11.72105
610.50952   397.43810   210.00000  18.67978             14.74200
614.24430   598.64169   307.00000  21.76747             18.56309
612.00000   755.45813   203.00000  17.79205             14.72259
612.07692   686.38462   52.00000   9.01960              7.35061
614.98621   939.50345   145.00000  16.77859             11.17107
616.56707   69.18293    164.00000  20.01038             11.04544
617.90286   288.80000   175.00000  18.54365             12.23878
624.41564   914.22634   243.00000  24.81370             12.81031
626.79715   879.28826   281.00000  25.01643             14.39275
621.81250   689.29167   96.00000   13.47044             9.08975
622.10156   704.17969   128.00000  15.70072             10.46689
632.06395   1069.23256  344.00000  37.04224             12.09121
628.92430   381.43028   251.00000  21.71002             14.78490
626.36555   638.40336   238.00000  21.07155             15.16702
625.87143   499.93571   140.00000  14.70723             12.15829
633.44404   679.93141   277.00000  21.23893             17.03264
628.81481   288.01235   162.00000  18.22001             11.58645
634.15033   476.95752   306.00000  22.55514             17.52830
634.45977   539.26437   87.00000   15.98994             7.43126
636.15353   43.95021    241.00000  17.94581             17.26880
636.14953   964.72430   214.00000  18.49274             14.84612
635.92216   223.59880   167.00000  15.48460             13.75049
640.11579   447.16842   285.00000  24.74636             14.89336
637.95185   1110.63704  270.00000  25.68922             13.58514
641.89912   1011.55263  228.00000  24.51931             12.03502
643.49027   984.24514   257.00000  19.89333             16.68781
643.39676   1181.02024  247.00000  21.79506             14.53367
642.84914   512.43966   232.00000  20.44957             14.75593
642.87843   620.17255   255.00000  20.97621             15.68537
645.12917   637.62917   240.00000  26.66812             11.74496
645.45349   937.59302   172.00000  17.83416             12.35530
648.04478   127.63682   201.00000  18.51638             13.83328
649.54502   160.86256   211.00000  18.11086             14.85422
649.34254   283.06630   181.00000  17.00334             13.58378
651.55472   662.19245   265.00000  20.98623             16.28826
653.11940   716.51244   201.00000  17.61325             14.64440
659.56478   187.50166   301.00000  23.20928             16.58000
659.89583   410.67500   240.00000  23.45515             13.10187
654.45690   1123.62069  116.00000  14.01796             10.56636
659.81707   92.20325    246.00000  19.29872             16.28272
661.14754   437.77869   244.00000  21.34315             14.81228
655.00000   905.50000   16.00000   4.89898              4.00000
661.91045   621.30846   201.00000  21.28214             12.15271
664.24324   548.78378   111.00000  14.84756             9.51335
669.63986   1103.88462  286.00000  24.81420             14.99775
669.38793   594.91379   232.00000  20.03023             14.82266
670.16062   983.24352   193.00000  17.15702             14.43891
675.10724   515.19839   373.00000  26.25849             18.50252
677.85475   1036.28492  358.00000  34.24507             13.83650
672.44162   635.74619   197.00000  18.12859             13.87234
673.93902   1166.29675  246.00000  28.78709             11.11714
674.18265   36.18265    219.00000  18.01824             15.50288
673.24742   265.06701   194.00000  16.99284             14.53918
673.92778   164.91111   180.00000  15.60181             14.72172
675.86486   685.22703   185.00000  16.99971             14.09968
676.12632   767.16316   190.00000  17.18524             14.31624
676.16667   146.84259   108.00000  14.46671             9.66586
682.83482   52.43304    224.00000  17.95241             16.14629
688.68622   354.36950   341.00000  27.89594             16.95374
681.67358   554.41969   193.00000  19.41586             12.68893
683.50000   1002.86765  204.00000  17.50189             14.92700
687.09968   922.07074   311.00000  29.44232             14.00589
685.10762   948.80717   223.00000  19.02757             14.94762
688.79825   1179.70614  228.00000  24.18775             12.17736
690.21721   774.96721   244.00000  18.68334             17.10901
693.65939   73.62009    229.00000  25.97822             13.03092
695.49642   695.13842   419.00000  28.92168             21.32044
692.57778   502.38889   180.00000  17.73263             12.94490
693.98270   717.49135   289.00000  24.49926             15.31362
697.07407   213.40741   270.00000  20.63491             16.98163
696.10096   633.07212   208.00000  19.26950             13.94969
695.35268   439.81696   224.00000  19.07505             15.19076
701.11441   979.26695   236.00000  25.66206             11.74476
698.75102   173.71020   245.00000  22.13377             14.18844
695.67593   264.35185   108.00000  12.80304             10.85829
700.36957   913.45652   230.00000  24.97961             11.91543
700.87234   297.96596   235.00000  27.52149             10.98116
706.05983   463.76068   234.00000  26.51588             14.19050
701.59444   558.88889   180.00000  20.06674             12.09257
704.14433   579.85567   97.00000   13.52409             9.12792
706.53371   642.47191   178.00000  16.18101             14.15120
710.29310   243.05172   232.00000  24.68744             12.14889
710.14894   681.40071   282.00000  27.60316             13.80795
710.66818   194.95000   220.00000  17.57046             15.96886
713.39333   1215.35000  300.00000  27.62858             13.95085
714.14015   22.68182    264.00000  20.10103             16.75535
716.61968   1137.32181  376.00000  23.62926             20.52465
720.18065   149.09677   310.00000  24.26068             16.48495
718.97338   966.22053   263.00000  22.81997             14.76648
722.53795   598.24422   303.00000  24.41378             15.97337
719.56557   526.03279   244.00000  18.29315             17.09844
723.40831   332.64303   409.00000  26.56154             20.21687
722.88286   416.28000   350.00000  24.25476             19.27584
721.58791   366.12088   182.00000  17.33307             13.57432
721.15880   708.45923   233.00000  20.71282             14.50380
726.09459   627.66216   296.00000  22.72007             18.00276
723.93478   1247.04891  184.00000  17.20819             13.85131
724.85841   199.42035   226.00000  21.87414             13.26126
724.86047   512.75000   172.00000  18.13407             12.17631
725.36140   226.94737   285.00000  26.26260             13.93776
726.28108   668.03243   185.00000  22.90748             10.48752
729.33854   837.11979   192.00000  19.41598             12.74583
728.74854   550.18129   171.00000  16.61907             13.10595
731.87050   362.01439   139.00000  18.19132             9.86082
733.03371   452.83521   267.00000  21.59448             16.30736
726.58621   560.58621   29.00000   7.04934              5.14614
733.67578   913.12891   256.00000  19.78256             17.13046
731.20261   726.16993   153.00000  17.09621             11.57582
741.27299   1020.73563  348.00000  21.53932             20.64255
742.77903   1279.60300  267.00000  30.92325             11.50933
742.01770   307.72124   226.00000  20.19414             14.57151
743.30622   1204.06220  209.00000  19.97087             13.42653
738.60000   223.87778   90.00000   13.41783             8.58464
741.36943   505.37580   157.00000  15.86818             12.76389
744.24409   686.35039   254.00000  19.31275             16.92148
744.21678   623.61538   143.00000  13.97763             13.08379
744.68345   671.57554   139.00000  17.56602             10.44268
747.65487   29.52212    226.00000  17.65215             16.50988
746.11921   283.78146   151.00000  17.89489             10.91084
747.36190   522.69524   210.00000  17.53190             15.32080
750.47660   1263.86809  235.00000  22.68932             13.28530
750.14884   55.84651    215.00000  17.07236             16.07564
754.14844   1196.03906  256.00000  28.97698             11.46004
752.97727   345.60606   264.00000  21.82679             15.69819
757.58804   855.05316   301.00000  22.87654             17.06864
754.40000   581.45263   95.00000   14.55574             8.29317
755.87685   387.29557   203.00000  19.18371             13.53703
757.63514   1311.98649  222.00000  17.40341             16.52727
756.82716   295.30453   243.00000  20.98083             14.99463
760.30714   927.48571   280.00000  24.21573             14.75031
758.98367   108.40000   245.00000  20.08984             15.69211
761.10332   415.76384   271.00000  21.41149             16.41341
761.18828   12.59414    239.00000  19.49443             15.69888
759.94330   464.45876   194.00000  16.06640             15.43521
760.30645   1279.64516  186.00000  18.56207             12.89398
762.27083   484.36806   144.00000  13.95517             13.27993
763.12698   369.52910   189.00000  17.58719             13.73468
764.41250   537.96250   240.00000  21.61492             14.36373
768.31915   312.68794   282.00000  21.91578             16.56195
767.54822   496.64975   197.00000  18.32622             13.74006
764.09722   650.62500   144.00000  15.92875             11.56077
768.60190   58.46919    211.00000  18.61283             14.55687
768.57812   758.71875   192.00000  18.24155             13.65220
772.08906   949.08142   393.00000  27.66662             19.11008
767.94382   1143.84270  267.00000  25.31437             13.63827
769.68333   1244.61667  300.00000  22.91072             16.84113
772.80000   966.16250   160.00000  18.37362             11.40823
779.42045   1016.98485  264.00000  31.02063             11.02795
774.10177   353.51770   226.00000  21.85205             13.22435
775.06030   738.07286   398.00000  34.93115             15.64085
776.78241   687.25926   216.00000  24.09246             11.52204
776.43182   412.74432   176.00000  17.49303             12.87919
780.07117   231.28826   281.00000  22.50116             16.13166
782.35371   317.33624   229.00000  20.95658             14.33650
777.79888   442.58659   179.00000  19.38618             11.81472
780.75314   1368.32218  239.00000  21.05418             14.68020
783.32035   999.69697   231.00000  22.91024             12.99255
781.05556   1258.00000  198.00000  17.60645             14.65647
783.14205   602.48295   176.00000  19.08363             11.75262
778.54455   647.71287   101.00000  13.74227             9.58222
782.52308   175.02692   260.00000  19.63480             16.89949
785.47945   875.86644   292.00000  22.10551             16.92973
783.04913   1144.22543  346.00000  29.46778             16.30421
784.34848   515.41414   198.00000  17.31374             14.64846
783.71101   534.30275   218.00000  17.27244             16.11875
786.80351   287.19649   285.00000  20.67299             17.85308
786.22754   961.65269   167.00000  18.93759             11.38961
788.52190   1187.24818  274.00000  30.00056             11.79983
789.81655   119.62590   278.00000  20.75003             17.21250
789.90119   141.21739   253.00000  21.16640             15.30777
786.38596   349.38596   171.00000  16.73092             13.05452
788.36145   580.73494   166.00000  21.65352             10.15576
791.64286   77.38929    280.00000  20.32039             17.63566
788.63743   651.38596   171.00000  15.89269             14.14585
795.29078   260.56383   282.00000  20.89395             17.24119
796.86508   684.93254   252.00000  21.10140             15.59462
795.26601   209.96059   203.00000  21.61596             12.03964
801.25704   1234.41197  284.00000  23.29627             16.33422
805.03793   397.11724   290.00000  27.79704             13.48481
805.24419   1393.04651  258.00000  21.24784             15.62168
805.96327   919.21224   245.00000  19.21494             16.33935
809.83381   607.21203   349.00000  24.70028             18.39495
809.13402   1292.35739  291.00000  26.42102             14.20991
806.25896   283.66932   251.00000  27.58380             11.93244
808.26909   562.53091   275.00000  21.47642             16.51017
810.56818   638.93182   220.00000  24.26406             11.65791
807.51613   696.37097   124.00000  12.81347             12.35742
812.75983   186.11354   229.00000  19.12156             15.95124
812.06410   738.30769   156.00000  16.04724             12.55074
815.74184   822.24926   337.00000  24.56181             18.03257
812.51852   1265.56173  162.00000  16.27424             12.73747
814.82915   476.45729   199.00000  23.31960             11.35634
815.41784   680.47418   213.00000  20.71517             13.15643
819.24074   319.78704   216.00000  26.15340             10.78985
818.35714   888.98701   154.00000  16.51186             11.93557
817.39648   339.09692   227.00000  27.16265             10.77283
817.64286   491.72619   84.00000   10.69584             10.09840
822.31900   1010.93907  279.00000  20.34687             17.66520
822.56031   253.05058   257.00000  23.20932             14.36214
818.44444   727.96296   54.00000   9.95807              6.89785
822.44910   78.56287    167.00000  17.06961             12.58539
824.11111   148.28704   216.00000  20.75514             13.33351
823.31724   389.28966   145.00000  15.93419             11.79264
823.25556   473.91111   90.00000   12.43028             9.58964
826.72222   750.95455   198.00000  18.78011             13.44722
831.01772   779.52658   395.00000  30.92677             16.37116
826.76647   961.79641   167.00000  16.39081             13.02543
828.56000   56.86400    250.00000  19.86767             16.11838
825.63804   602.19018   163.00000  20.27582             10.36549
828.41566   650.96386   166.00000  15.42725             13.78266
829.60305   491.45802   131.00000  14.07173             11.99817
834.28689   233.75410   244.00000  22.39033             13.89877
834.78161   929.67816   261.00000  20.84109             16.40515
838.06827   1727.26506  249.00000  27.71759             11.49466
831.37209   616.93023   86.00000   12.70242             8.75943
837.09091   181.03497   286.00000  21.46020             17.11030
835.70352   569.29146   199.00000  17.48274             14.53916
832.86667   1229.60952  105.00000  12.49857             10.84589
835.12438   8.65672     201.00000  20.03850             12.97479
840.12431   293.38674   362.00000  29.33033             15.92481
840.44245   715.03957   278.00000  26.94465             13.58511
836.36555   327.48319   238.00000  24.60667             12.36964
838.04000   401.76000   150.00000  15.02186             12.84821
837.20122   606.50610   164.00000  15.94212             13.11972
840.97544   1221.76491  285.00000  24.57800             15.96476
839.33108   909.86486   148.00000  15.14554             12.57299
841.76692   882.89474   266.00000  27.04239             13.18667
840.59048   920.37143   105.00000  15.71445             8.82710
845.86697   560.46789   218.00000  28.16148             10.19390
846.88889   548.53623   207.00000  19.15035             13.99316
843.89516   700.70161   124.00000  14.43836             10.97789
846.50289   365.63584   173.00000  19.31961             11.82363
846.48691   502.01571   191.00000  16.51312             14.75671
845.54054   851.13964   222.00000  22.03460             13.09472
846.77519   343.77519   129.00000  15.70788             10.50443
850.24064   533.48663   187.00000  16.38943             14.84456
856.38441   977.93548   372.00000  27.56458             17.37010
854.43627   613.04902   204.00000  18.59275             14.46600
859.15196   644.63235   204.00000  23.13781             11.67501
856.44019   213.04306   209.00000  17.23180             15.68445
856.80496   456.10993   282.00000  22.55343             16.97521
852.99242   582.71970   132.00000  17.39785             9.78849
860.06478   55.11336    247.00000  19.61292             16.08378
856.84615   351.84615   182.00000  16.96784             13.71751
861.23358   476.25547   274.00000  22.47399             15.71585
860.59111   1182.54667  225.00000  19.82371             14.85184
860.41210   706.36888   347.00000  29.64776             16.12596
862.51412   366.10734   177.00000  18.29663             12.71973
862.57078   177.10502   219.00000  26.82184             11.46540
865.10299   262.16279   301.00000  22.28060             17.27454
863.60664   300.50237   211.00000  19.62119             13.69132
862.23529   629.04902   204.00000  20.69503             13.29482
865.59783   755.10507   276.00000  21.42084             16.57500
865.61111   526.21667   180.00000  20.03632             11.61213
862.37681   539.71014   69.00000   10.55625             8.33842
867.66023   404.32432   259.00000  24.85831             13.73556
868.59206   826.80866   277.00000  25.25805             14.24069
874.25234   1311.14953  214.00000  29.15965             10.14669
871.30612   216.18367   196.00000  16.96758             14.77522
871.89474   662.50376   133.00000  18.91125             8.97067
873.31818   792.55785   242.00000  23.97057             13.71623
872.76494   873.64143   251.00000  22.80614             14.69039
876.43028   1012.86454  251.00000  27.19285             11.85513
878.48910   722.39952   413.00000  31.47832             18.16905
877.55782   1332.02721  294.00000  23.67207             16.08407
882.09000   490.87667   300.00000  24.89492             15.92744
882.04392   1261.55405  296.00000  26.28632             14.54650
877.63889   1320.63889  108.00000  15.83619             8.75202
881.97527   580.68905   283.00000  20.65827             17.90603
878.77160   641.16667   162.00000  15.82837             13.15570
879.74457   675.52717   184.00000  17.74563             13.20548
882.78731   1158.63433  268.00000  23.18083             15.14194
883.70000   238.22778   180.00000  18.68475             12.58522
882.19171   267.75130   193.00000  15.80724             15.57446
886.55263   313.10526   266.00000  21.91722             15.72843
881.31343   344.91045   134.00000  17.77445             9.62483
886.38284   382.14521   303.00000  22.81965             17.21731
887.64835   599.47253   273.00000  21.90915             16.04043
898.03143   535.31429   350.00000  29.36703             15.70382
892.39394   894.95455   198.00000  22.80647             11.15979
895.25672   921.41791   335.00000  26.41555             16.39749
892.21667   26.84444    180.00000  18.25724             12.60783
895.51316   419.29825   228.00000  23.84134             12.33124
895.43458   288.27103   214.00000  18.85176             14.54490
898.22961   352.20544   331.00000  21.13501             20.03466
902.74007   810.91697   277.00000  28.19718             12.84743
899.25667   1095.24333  300.00000  22.63570             17.20998
900.46894   1717.54969  322.00000  21.65861             19.76929
900.91429   252.16190   210.00000  18.18941             14.97804
898.02158   465.02158   139.00000  13.44747             13.13514
902.75000   797.90625   224.00000  20.67981             14.25749
908.27717   65.22826    368.00000  27.09978             17.80498
902.05797   550.24638   138.00000  16.09642             10.98334
902.88660   578.96907   194.00000  17.42025             14.84991
900.25000   968.14773   176.00000  25.55377             8.97579
900.12245   736.55102   49.00000   8.85955              7.11439
913.78109   770.01576   571.00000  44.74085             18.49183
900.73636   719.20000   110.00000  17.91949             8.08443
904.78500   268.94000   200.00000  19.92444             12.83976
910.47432   442.05136   331.00000  23.12441             18.85196
908.34948   848.34602   289.00000  22.79568             16.71922
912.24895   647.27004   237.00000  17.90208             16.97425
914.17308   463.21538   260.00000  19.27499             17.61793
914.44053   608.90308   227.00000  19.80700             14.90485
913.92708   674.28125   192.00000  18.84004             13.02698
908.74545   685.65455   55.00000   10.06792             6.95832
918.95455   697.30455   220.00000  27.81236             10.65197
915.33333   729.90222   225.00000  18.82769             15.44124
914.60073   887.21245   273.00000  27.40107             13.08259
920.72619   1355.74206  252.00000  29.49218             11.09602
916.54741   174.29310   232.00000  20.98551             14.29220
917.50244   419.40976   205.00000  18.78833             13.99651
916.91379   556.80172   232.00000  18.99472             15.82570
915.97909   948.70035   287.00000  29.15493             12.98630
917.64000   346.68000   175.00000  16.40275             13.71603
919.40268   204.10067   149.00000  17.70710             10.74650
921.69180   276.99672   305.00000  26.16818             15.16602
919.22340   980.60638   94.00000   14.06933             8.71107
924.18041   989.89175   194.00000  19.20667             13.06777
919.34109   314.93023   129.00000  16.78109             9.86686
921.85818   502.93091   275.00000  22.81925             15.64202
924.85813   833.78201   289.00000  21.13858             17.78209
922.83333   687.24167   120.00000  13.92979             11.07167
922.96552   1019.71552  232.00000  24.34781             12.20830
924.06536   1723.94118  153.00000  14.73844             13.28082
926.75449   580.52695   167.00000  17.94747             11.93404
934.03815   534.99728   367.00000  26.09771             20.28027
933.46781   236.46781   233.00000  27.94309             10.70681
932.39655   879.19310   290.00000  27.01528             14.87140
940.74110   1040.31068  309.00000  35.85164             11.26862
933.29185   384.55794   233.00000  24.34674             12.34554
934.39831   183.36441   118.00000  15.27185             9.95954
934.22785   414.18565   237.00000  23.01937             13.62675
934.37079   264.00562   178.00000  19.27008             11.79378
942.15385   357.61538   247.00000  25.53432             12.90599
939.54008   710.93671   237.00000  18.39271             16.60049
934.58491   674.77358   53.00000   8.96341              7.53388
940.21122   813.90759   303.00000  24.35835             16.31007
940.78626   141.62214   262.00000  27.89232             12.51362
938.49265   306.77206   136.00000  16.61652             10.54403
939.39419   489.38589   241.00000  22.25655             14.57422
938.51136   87.96023    176.00000  19.17745             11.76737
941.56846   203.78008   241.00000  21.30012             14.46744
942.07735   282.11050   181.00000  17.34891             13.48072
946.81915   571.40426   282.00000  21.35432             17.51768
948.61660   1275.78656  253.00000  26.05380             12.69092
943.17391   324.07391   230.00000  24.31350             12.21563
945.46186   666.38136   236.00000  21.19033             14.36366
949.28718   252.85128   195.00000  17.21179             14.65112
954.14490   763.33673   490.00000  29.96530             21.28705
949.15385   916.83916   143.00000  17.20511             10.98391
954.11765   469.92388   289.00000  23.49287             16.35143
952.94118   651.56078   255.00000  21.56752             15.44827
955.40377   871.87170   265.00000  22.02156             16.48595
953.65217   925.82609   138.00000  14.69827             12.18120
953.78788   1109.75325  231.00000  22.08115             13.46124
950.07143   335.39286   28.00000   6.32021              5.68868
953.55970   390.80597   134.00000  14.54001             11.86694
956.14108   555.17427   241.00000  20.56643             15.23216
958.83333   207.43972   282.00000  22.81735             15.87275
960.78929   604.93214   280.00000  22.32172             16.27749
956.92655   366.07345   177.00000  20.77383             10.89880
960.87727   498.08182   220.00000  28.96170             9.99267
959.59524   84.57143    126.00000  14.30581             11.36716
960.82857   400.90952   210.00000  20.70806             12.97264
956.95238   433.28571   42.00000   8.15577              6.64387
964.10357   578.07857   280.00000  23.70492             15.10839
965.07203   1384.36017  236.00000  26.48210             11.62686
964.61923   181.75000   260.00000  21.68858             15.38059
961.89062   280.87500   128.00000  14.50838             11.27233
966.35260   726.39306   173.00000  18.61463             12.15766
969.83796   1342.71759  216.00000  24.53237             11.32777
962.73438   148.12500   64.00000   9.40010              8.63188
968.81579   697.25877   228.00000  20.46998             14.59863
972.67431   629.49083   218.00000  23.96683             11.67146
974.68092   751.09211   304.00000  24.44623             16.48081
972.11321   318.55094   265.00000  22.09001             15.66476
971.81053   677.68947   190.00000  18.12096             13.39434
971.24883   815.55869   213.00000  16.58779             16.40641
974.93213   960.41629   221.00000  24.07892             11.98271
969.06579   161.31579   76.00000   10.48547             9.20930
971.30319   379.79255   188.00000  16.88038             14.19169
972.95041   424.31818   242.00000  20.53224             15.07144
972.06863   273.19608   204.00000  22.84085             11.40162
970.91667   336.50000   108.00000  15.76362             8.75959
971.71287   358.97030   202.00000  24.07192             10.80343
975.83556   123.68000   225.00000  20.05500             14.45888
979.25888   504.34518   197.00000  21.10176             12.22384
978.38362   516.80172   232.00000  21.11584             14.25022
976.25581   541.94419   215.00000  25.84681             10.75819
977.18994   215.89944   179.00000  16.09793             14.24625
977.16154   99.09231    130.00000  13.06957             12.67166
983.49686   995.83019   318.00000  26.25414             15.57112
980.89170   1059.40433  277.00000  26.65595             13.80681
981.18452   911.77381   168.00000  18.49541             11.73858
985.94762   339.19524   210.00000  19.61315             13.89636
980.84270   950.64045   89.00000   11.60863             9.93179
988.22564   390.79487   195.00000  21.95334             11.48685
985.84667   739.82667   150.00000  15.89596             12.11535
991.31864   1132.52203  295.00000  32.32668             11.72846
988.42581   571.82581   155.00000  14.90813             13.28253
989.99576   1079.32203  236.00000  20.44897             14.72610
991.79412   842.32353   238.00000  20.28483             15.75936
991.75191   465.18702   262.00000  22.76134             15.00976
992.35938   11.20312    192.00000  16.95403             14.53161
995.33216   612.82332   283.00000  23.59776             15.66538
991.07292   261.18750   96.00000   13.06861             9.34864
991.92553   272.96809   94.00000   12.58540             9.55903
998.10887   1347.56048  248.00000  24.41182             13.22785
997.09701   828.33582   268.00000  21.12818             16.55755
992.96825   81.55556    63.00000   9.87646              8.08543
997.26061   554.00000   165.00000  22.00411             9.92910
1000.62548  686.14672   259.00000  19.68545             17.10501
999.14894   297.12234   188.00000  18.62917             13.17065
1001.55801  542.19890   181.00000  17.17061             13.56701
1000.62385  102.63303   109.00000  12.71422             11.14145
1000.67407  311.80000   135.00000  14.42524             11.94318
1000.53793  949.13103   145.00000  13.75847             13.61971
1004.47436  248.45513   156.00000  16.22128             12.29578
1003.15205  282.97661   171.00000  15.73148             13.95403
1006.78481  402.51899   237.00000  23.72248             12.75372
1006.03021  668.01813   331.00000  24.30837             17.51362
1004.77000  814.19500   200.00000  17.17069             14.87926
1004.68683  1108.04626  281.00000  27.20444             13.66016
1007.05455  176.05000   220.00000  18.17122             15.58937
1008.57368  713.15263   190.00000  16.31121             14.92051
1009.91892  449.92973   185.00000  16.23013             14.63977
1011.19118  309.13235   136.00000  16.65258             10.67997
1008.77477  421.13514   111.00000  18.75408             7.83906
1013.85484  617.43548   248.00000  23.68852             13.54082
1011.66839  362.38342   193.00000  19.70298             12.58884
1015.41803  1389.09426  244.00000  21.00632             15.12114
1015.01579  648.85263   190.00000  18.30468             13.48676
1014.55340  1137.88350  103.00000  13.33455             9.87223
1016.72414  939.25862   116.00000  14.10353             10.50004
1016.71053  419.62500   152.00000  17.81513             11.27545
1022.36943  585.99045   314.00000  22.69552             18.29070
1021.57732  1193.93814  291.00000  32.34594             11.75476
1021.89558  332.94779   249.00000  22.47598             14.16349
1017.59259  320.07407   27.00000   6.42150              5.26541
1026.05628  246.25108   231.00000  22.33972             13.24948
1021.13684  376.78947   190.00000  20.74292             11.76822
1024.77273  126.81061   132.00000  15.66562             10.73538
1028.63374  515.96708   243.00000  19.23094             16.54098
1029.43304  794.04464   224.00000  20.20170             14.14473
1025.01449  90.69565    69.00000   11.04127             7.99796
1030.26159  293.81788   302.00000  24.72269             16.05075
1030.49749  354.26131   199.00000  21.15203             12.06855
1027.76824  1283.17597  233.00000  24.29200             12.26299
1027.64706  155.31373   51.00000   8.57908              7.55686
1033.61905  1189.37229  231.00000  19.19888             15.69590
1030.75163  1419.37908  153.00000  14.30696             13.60213
1035.35739  266.52577   291.00000  27.88533             13.63428
1031.70833  202.52083   96.00000   13.03286             9.40442
1033.15957  432.42021   188.00000  22.35727             10.82868
1034.52466  909.23767   223.00000  19.50066             14.74428
1033.83258  1109.23982  221.00000  19.18064             14.90244
1034.00813  170.88618   123.00000  13.94727             11.27903
1038.97647  840.83137   255.00000  26.41359             13.40616
1040.95652  219.36812   345.00000  27.97280             16.17073
1036.50000  550.86598   194.00000  22.20701             11.34849
1041.36652  597.73756   221.00000  21.22419             13.82509
1037.22963  775.93333   135.00000  13.43250             12.83461
1036.11429  633.12857   70.00000   10.31203             8.73352
1037.53952  1225.10997  291.00000  31.55325             12.05978
1040.27950  58.71429    161.00000  15.85950             12.94545
1042.28631  158.64730   241.00000  21.47378             14.38440
1042.48760  645.92562   242.00000  20.72562             14.90501
1043.67100  680.74892   231.00000  20.43454             14.67160
1041.32804  1255.55556  189.00000  22.06318             11.51467
1043.58219  313.64384   146.00000  15.95687             11.85100
1039.58140  338.91860   86.00000   13.59425             8.04686
1043.44976  705.66029   209.00000  17.48105             15.42724
1047.96850  1424.55906  254.00000  23.63273             13.77452
1041.80000  275.44545   110.00000  13.40555             10.53669
1041.74074  303.74074   54.00000   9.18230              7.58515
1046.40376  722.97653   213.00000  20.14576             13.60270
1046.07042  125.85211   142.00000  13.47270             13.41958
1045.18447  138.79612   103.00000  12.57261             10.69713
1047.86159  398.46021   289.00000  22.41483             16.59318
1047.82400  630.90400   125.00000  16.19641             9.95074
1050.14815  1053.43333  270.00000  20.16311             17.17160
1048.45098  327.08824   102.00000  13.53326             9.61930
1049.55385  483.67692   195.00000  23.77071             11.44466
1050.29104  511.31716   268.00000  26.10808             13.66116
1051.38182  202.87273   165.00000  17.99898             11.70300
1053.50833  608.53333   240.00000  18.34484             17.33920
1054.70815  757.61803   233.00000  21.65679             13.96773
1054.29609  671.08380   179.00000  17.80348             13.12430
1053.38500  1257.26500  200.00000  17.31488             14.78038
1054.52885  580.96154   208.00000  17.57148             15.42645
1054.78155  1364.61650  206.00000  17.86306             14.79859
1057.52500  188.92500   200.00000  19.20731             13.58895
1051.84615  532.56410   39.00000   8.08648              6.11935
1052.16176  768.80882   68.00000   9.69454              8.92192
1056.51408  555.71831   284.00000  33.98475             11.13251
1054.81132  643.92453   53.00000   8.97690              7.55108
1061.32843  374.63235   204.00000  21.00794             12.44727
1063.84242  1211.30606  330.00000  29.41451             14.50077
1057.78313  312.49398   166.00000  23.76577             9.07142
1056.60714  904.64286   28.00000   6.65307              5.32628
1063.70248  924.63223   242.00000  24.08837             13.18795
1062.65447  244.97967   246.00000  21.03214             15.24090
1061.71556  891.24889   225.00000  19.95082             14.47509
1066.09174  224.38532   218.00000  22.75885             12.32741
1068.18103  352.00431   232.00000  22.86473             13.54138
1071.08621  1359.27155  232.00000  21.15326             14.11772
1070.42857  383.70507   217.00000  20.35796             13.68867
1071.75000  494.68952   248.00000  24.46333             13.70084
1069.73885  662.38217   157.00000  15.95111             12.62770
1066.66667  736.50000   30.00000   6.34560              5.96285
1077.63141  989.72115   312.00000  29.33936             13.64719
1072.02273  192.56818   220.00000  20.76742             13.70517
1077.89420  1424.71672  293.00000  26.81943             14.04305
1071.79874  1795.46541  159.00000  15.40327             13.18410
1080.18413  555.43492   315.00000  28.84310             16.68718
1075.44118  1156.43627  204.00000  21.97691             11.98826
1072.57143  1254.85185  189.00000  17.32795             14.09670
1075.10881  710.21762   193.00000  18.22076             13.61155
1076.64634  403.80081   246.00000  20.10728             16.58154
1071.09091  461.89091   55.00000   9.72184              7.17568
1086.74174  635.17718   333.00000  32.58079             15.22714
1076.68000  306.90000   150.00000  15.02454             12.84931
1080.59779  684.81181   271.00000  23.15873             14.98737
1078.00971  421.40777   206.00000  20.51665             12.92312
1080.69461  294.45509   167.00000  18.41414             11.66266
1088.75789  608.24561   285.00000  36.91227             10.00013
1081.31792  329.69942   173.00000  22.17569             10.25328
1080.46429  482.88095   84.00000   12.55884             8.48134
1084.91775  236.79654   231.00000  18.65259             15.91708
1084.90821  447.41063   207.00000  21.80272             12.28140
1089.86957  1262.31773  299.00000  21.30834             18.06085
1087.19531  697.62500   128.00000  13.72003             11.96977
1087.92973  1792.35676  185.00000  17.58800             13.39890
1087.12360  347.84270   89.00000   12.66677             8.96385
1091.79412  710.52941   204.00000  18.87856             13.99181
1089.07031  721.56250   128.00000  15.06482             11.40327
1095.72401  166.73477   279.00000  31.17289             12.21844
1092.05217  142.14783   115.00000  13.85670             10.64275
1089.93548  748.61290   62.00000   9.27668              8.48500
1097.06040  378.33893   298.00000  21.06487             18.55626
1097.11429  229.74286   175.00000  16.97412             13.23483
1103.67925  1033.69542  371.00000  32.05964             16.43456
1104.47148  662.67681   263.00000  26.90532             12.95801
1100.69010  774.93291   313.00000  24.51180             16.29571
1099.30952  1240.19048  84.00000   11.51411             9.32878
1105.24335  865.74525   263.00000  22.09052             15.23056
1102.44628  423.70248   121.00000  13.49845             11.43716
1103.87317  561.70244   205.00000  19.75712             13.39901
1105.18621  489.91034   290.00000  22.47254             16.99041
1104.38144  245.86082   194.00000  23.74257             10.46560
1105.27586  471.28276   145.00000  15.13249             12.23733
1109.15984  198.62705   244.00000  21.78858             14.66570
1105.50000  454.50000   34.00000   7.02935              6.13572
1111.44528  758.18113   265.00000  20.15025             17.07669
1113.40283  326.39929   283.00000  21.20184             17.01898
1110.33333  1161.18280  93.00000   14.01011             8.85402
1112.91693  296.98083   313.00000  23.40020             17.53048
1111.70492  345.22951   244.00000  23.03005             13.54423
1117.02623  1214.93770  305.00000  22.99743             17.66990
1117.33858  847.15748   254.00000  21.69619             15.16279
1111.26316  1190.87368  95.00000   15.39378             7.93559
1117.91544  448.08824   272.00000  20.53150             17.18193
1114.79730  27.75676    148.00000  16.23443             11.73243
1118.62752  142.06711   298.00000  22.13113             17.16252
1117.36937  1241.90090  111.00000  16.21106             8.77836
1119.18848  772.12042   191.00000  16.54671             14.73831
1117.97268  105.71585   183.00000  17.65272             13.23664
1120.35270  423.41494   241.00000  18.94373             16.26773
1115.86923  1151.10769  130.00000  19.53338             8.67286
1125.83862  978.47884   378.00000  28.88687             17.28390
1121.31646  553.43038   158.00000  16.24327             12.45327
1123.60484  601.00403   248.00000  20.54190             15.53714
1124.26389  169.27778   216.00000  20.34802             13.70517
1122.70833  219.62121   264.00000  25.53142             13.29178
1124.13757  504.42328   189.00000  18.80558             13.01549
1122.03529  564.69412   85.00000   12.03760             9.02952
1124.66887  1054.23841  151.00000  21.84170             8.95379
1127.37069  252.42672   232.00000  20.71111             14.67604
1122.02857  544.17143   35.00000   7.63458              5.83352
1128.68359  816.55078   256.00000  19.51147             17.28358
1126.52542  1264.95763  236.00000  27.39383             11.10108
1128.45665  202.53179   173.00000  16.60011             13.47219
1132.78723  27.30851    188.00000  18.01887             13.44686
1131.47500  181.16250   160.00000  19.78997             10.61719
1132.71717  321.78283   198.00000  17.52439             14.54331
1137.83083  681.50000   266.00000  28.05126             12.11504
1134.22930  1823.30573  157.00000  15.91403             12.67322
1136.47297  432.97748   222.00000  27.19601             10.50083
1137.93678  476.68966   174.00000  19.53850             11.40269
1134.92727  713.10909   55.00000   9.28846              7.52176
1138.36567  188.30597   134.00000  14.86767             11.99136
1147.09003  1419.70740  311.00000  28.98133             14.08465
1142.53266  780.05528   199.00000  19.83753             12.81152
1144.91429  502.62857   175.00000  25.33558             8.86666
1143.70000  380.85294   170.00000  16.69038             12.97683
1138.98936  1276.75532  94.00000   16.24930             7.41623
1143.36879  1333.32624  282.00000  31.07899             11.83714
1143.62044  1036.14599  137.00000  19.51071             9.15638
1148.44737  72.24737    190.00000  16.65979             14.93413
1149.29749  289.94624   279.00000  26.83019             13.72743
1146.68595  1047.55372  121.00000  17.40951             9.02405
1150.26000  191.21000   200.00000  21.61163             11.91765
1151.26638  258.96070   229.00000  18.00101             16.26769
1151.16290  733.57919   221.00000  18.91114             15.02509
1150.72993  466.93431   137.00000  15.17304             11.68015
1151.00000  572.84848   132.00000  16.51079             10.30428
1156.65761  175.16848   184.00000  27.30783             8.87329
1152.78713  1287.49010  202.00000  16.22896             15.85870
1153.67308  1345.47115  104.00000  13.93164             9.63335
1152.46154  552.29487   78.00000   12.49258             8.13713
1157.73894  840.85841   226.00000  18.78242             15.52402
1155.67857  406.10119   168.00000  16.05367             13.39459
1161.99699  678.88253   332.00000  30.61230             15.00254
1155.91379  361.39224   232.00000  23.60113             12.61878
1158.15058  778.81853   259.00000  22.18785             15.25380
1165.70333  1066.61667  300.00000  31.12274             12.67396
1161.77637  384.96203   237.00000  22.29601             13.83772
1159.73600  1173.16000  125.00000  14.58848             10.93634
1156.98058  1215.09709  103.00000  13.63638             9.62143
1159.82584  198.74157   178.00000  19.00707             12.00224
1161.90643  459.46199   171.00000  16.13374             13.87354
1161.85161  494.49032   155.00000  18.33738             10.76581
1159.31818  1020.60606  132.00000  14.27892             11.77609
1162.16031  1378.24809  262.00000  29.49468             11.61976
1170.00455  417.88636   220.00000  28.32967             9.94461
1161.62136  471.06796   103.00000  14.11604             9.44276
1162.57297  507.81081   185.00000  17.07932             14.59456
1169.61409  631.25503   298.00000  32.97260             11.65104
1165.36872  282.90503   179.00000  15.55056             14.76729
1164.77311  254.82353   119.00000  13.57025             11.20948
1167.43103  228.72845   232.00000  18.54847             16.02180
1169.57143  665.12554   231.00000  22.21220             13.34389
1167.64368  708.58908   348.00000  29.55472             15.19201
1169.57143  123.33673   196.00000  18.76726             13.44134
1169.45078  298.48705   193.00000  17.18577             14.53766
1168.50000  541.61616   198.00000  19.01313             13.51027
1172.20000  1209.57083  240.00000  19.63239             15.84873
1174.45175  1346.67544  228.00000  20.60661             14.50817
1177.80412  552.20619   194.00000  17.00952             14.77881
1180.29730  251.26126   111.00000  16.32445             8.73930
1184.27273  308.47059   374.00000  29.59290             16.48327
1180.07216  266.52062   194.00000  20.96011             11.87764
1181.78061  435.77551   196.00000  18.17839             14.43812
1185.07752  746.70543   258.00000  23.29981             14.33617
1179.84615  967.67133   143.00000  17.14149             10.77711
1181.97452  1169.33758  157.00000  15.22644             13.15477
1182.08889  1396.97222  180.00000  22.08451             10.44999
1184.62128  1412.53191  235.00000  22.50683             13.50238
1180.89362  126.69504   141.00000  17.95804             10.11333
1178.71053  397.05263   38.00000   8.02196              6.04805
1184.68421  336.61579   190.00000  18.09116             13.51626
1182.31724  479.84828   145.00000  15.46184             11.95629
1181.53846  385.58974   39.00000   8.06093              6.10146
1189.32463  1255.67910  268.00000  24.54517             14.17558
1190.53814  153.16949   236.00000  21.74956             13.90157
1194.07634  536.79008   262.00000  27.00548             12.64356
1194.36444  645.61778   225.00000  26.54225             10.83974
1190.54255  860.28191   188.00000  17.69885             13.63986
1186.29412  381.50000   34.00000   6.96407              6.15486
1190.53431  226.30392   204.00000  19.03112             13.67429
1192.17674  593.42326   215.00000  18.14124             15.28014
1192.39806  121.29612   206.00000  18.54577             14.20515
1194.89954  695.02283   219.00000  29.38512             10.50234
1202.85886  282.57658   333.00000  29.13207             15.70381
1194.54749  462.93296   179.00000  16.70358             13.92115
1194.70988  489.56790   162.00000  16.87603             12.21824
1195.63319  568.94760   229.00000  25.82501             11.63374
1195.48128  265.84492   187.00000  16.60190             14.53697
1201.58681  1236.93403  288.00000  25.47587             14.61206
1200.98723  737.52340   235.00000  19.83973             15.58693
1196.86331  1344.54676  139.00000  14.23898             12.44485
1206.14381  363.90970   299.00000  26.71920             14.47975
1205.00870  401.66087   230.00000  25.49669             11.61293
1204.10108  241.97473   277.00000  22.43067             15.89036
1206.57718  334.02349   298.00000  34.23081             11.93214
1206.46053  386.57456   228.00000  20.16077             14.52009
1208.14433  430.09622   291.00000  21.38486             17.47163
1206.40698  854.65116   172.00000  17.96970             12.18958
1207.41085  1295.03101  258.00000  21.87066             15.15440
1204.56429  1334.05000  140.00000  14.18307             12.67134
1206.21374  219.29008   131.00000  14.31981             11.69635
1209.97337  1450.34615  338.00000  22.80605             19.06676
1215.68553  721.24528   318.00000  32.51297             13.63623
1210.34555  1035.96335  191.00000  16.40770             14.84923
1211.08879  1862.21028  214.00000  19.45432             14.27319
1211.23364  997.32710   214.00000  20.57963             14.00354
1211.53968  1351.17989  189.00000  17.26639             13.95745
1211.78241  172.43519   216.00000  20.53431             13.76384
1216.96172  592.38278   209.00000  24.55917             10.94358
1216.51073  687.63519   233.00000  21.80816             13.71281
1214.11515  983.24848   165.00000  18.57273             11.65303
1222.32534  1207.82877  292.00000  29.66197             12.99649
1231.78412  648.35732   403.00000  36.71918             14.55305
1220.73832  568.88785   107.00000  14.48117             9.63583
1223.85253  289.74194   217.00000  17.54595             15.79003
1219.82692  493.01923   52.00000   9.72112              7.08839
1224.70513  1472.50000  234.00000  19.57842             15.26781
1225.91600  64.76400    250.00000  22.24618             14.54948
1226.08597  326.02715   221.00000  19.69729             14.50026
1229.20179  388.98206   223.00000  23.68967             12.25182
1233.24419  780.09012   344.00000  30.70813             14.59439
1225.60104  806.45078   193.00000  18.17362             13.53577
1227.08021  860.81818   187.00000  16.49742             14.50410
1226.88535  981.61783   157.00000  14.65233             13.95299
1231.44528  998.80377   265.00000  24.93179             13.97377
1226.63830  207.12766   141.00000  17.05641             10.70831
1229.17483  479.32168   143.00000  15.95176             11.58542
1227.60825  1872.69072  97.00000   12.59489             10.52936
1234.64946  244.55707   368.00000  26.27599             18.64631
1229.53571  449.35714   140.00000  14.97054             11.92328
1233.07353  114.31250   272.00000  20.76385             16.77819
1230.28409  269.81818   176.00000  17.14295             13.15395
1239.29412  372.22269   238.00000  25.43625             12.25072
1236.69261  880.31518   257.00000  25.38661             13.16576
1234.21719  343.99548   221.00000  18.38742             15.40666
1233.53061  497.27211   147.00000  14.82347             12.73875
1238.51575  967.31496   254.00000  20.47693             16.42311
1241.40278  849.11111   216.00000  19.11588             14.45853
1241.12946  423.43304   224.00000  19.31098             14.83588
1241.61905  1332.95238  189.00000  16.81374             14.35963
1242.57868  273.65482   197.00000  17.89275             14.26281
1242.94762  746.96667   210.00000  23.66434             11.66247
1249.18864  1320.87955  440.00000  33.90436             16.75334
1242.59740  506.45455   77.00000   12.28305             8.01988
1245.56190  1362.35714  210.00000  19.54390             13.87463
1250.95238  1064.60714  252.00000  27.18807             11.93973
1247.14966  571.23129   147.00000  15.05591             12.48549
1245.59906  1507.10849  212.00000  22.96579             11.83220
1249.02991  353.62821   234.00000  21.01318             14.97056
1249.37379  404.57767   206.00000  19.13302             13.88243
1254.88699  38.84932    292.00000  24.99852             16.29479
1253.80734  587.53670   218.00000  19.03929             14.73217
1252.29310  305.67241   174.00000  17.30529             12.88538
1249.71845  487.21359   103.00000  11.92564             11.03983
1255.25806  929.81567   217.00000  21.66002             13.35579
1252.03846  191.47253   182.00000  19.16767             12.22832
1258.83587  1390.62614  329.00000  29.64442             14.35290
1251.61957  1922.03261  92.00000   11.94229             10.28745
1260.40625  904.03125   288.00000  30.71694             12.75113
1255.57511  1530.43777  233.00000  23.10891             12.86868
1257.36364  948.55455   220.00000  21.89797             13.29891
1255.09272  1563.80795  151.00000  17.21543             11.37503
1252.86441  290.33898   59.00000   10.02175             7.50646
1258.30526  346.15789   190.00000  19.57341             12.60920
1260.80579  991.97934   242.00000  22.19648             13.90624
1260.81215  979.73481   181.00000  21.20191             11.16300
1260.00000  181.81319   182.00000  17.58509             13.27344
1262.05464  206.83060   183.00000  18.24846             12.85630
1257.29032  313.45161   31.00000   6.85750              5.70016
1263.12025  1575.89241  158.00000  16.68450             12.34507
1263.16760  409.98324   179.00000  19.04680             12.05319
1261.99010  424.65347   101.00000  12.92005             10.03858
1260.60345  502.32759   58.00000   9.39159              7.91199
1273.23457  730.66667   324.00000  31.40321             13.27097
1264.15132  1365.92763  152.00000  16.46869             11.86395
1270.77132  93.95349    258.00000  19.34576             17.02170
1270.62371  848.90722   194.00000  17.96064             13.84009
1275.35526  577.11404   228.00000  29.02902             10.14633
1266.79730  1504.93243  74.00000   11.60951             8.17724
1271.94574  321.35659   258.00000  20.86319             15.99935
1273.25623  757.95374   281.00000  23.56715             15.64291
1273.76763  525.50207   241.00000  19.26932             16.04233
1272.95070  290.06338   142.00000  16.79802             11.09648
1276.03825  691.21858   183.00000  17.86742             13.05266
1274.77387  441.62814   199.00000  20.21361             12.59646
1280.13889  1189.75794  252.00000  19.95615             16.16967
1278.19068  1311.35169  236.00000  18.31293             16.49985
1276.72835  1368.20079  254.00000  21.21315             15.31876
1278.14451  50.42775    173.00000  15.31749             14.47931
1277.96861  1595.65471  223.00000  19.06821             15.02778
1279.05525  1888.91713  181.00000  17.51699             13.26324
1279.49045  414.80255   157.00000  15.88933             12.65211
1283.45972  118.45498   211.00000  17.79098             15.34843
1281.42857  178.06696   224.00000  19.34847             14.79326
1282.86111  720.31250   144.00000  20.95852             9.04816
1287.43988  1402.39883  341.00000  25.01325             17.51927
1287.06269  1423.38507  335.00000  23.25773             18.54074
1281.20000  3.77143     70.00000   10.36449             8.67929
1284.19858  270.65248   141.00000  15.30273             11.87527
1280.94805  1490.53247  77.00000   11.10903             8.87486
1283.95146  305.36893   103.00000  11.90714             11.07804
1289.33333  247.01606   249.00000  22.24268             14.68037
1287.16292  343.23034   178.00000  21.67579             10.68808
1287.78173  852.84264   197.00000  17.77792             14.17029
1287.18878  909.38776   196.00000  16.91080             14.81133
1289.85556  495.81667   180.00000  20.84387             11.30366
1293.19409  586.02954   237.00000  29.13170             10.88536
1290.55474  1276.14964  274.00000  20.36162             17.31223
1294.25912  875.73358   274.00000  32.11559             11.08755
1291.33684  1455.78596  285.00000  21.94845             18.18842
1290.50251  794.02010   199.00000  19.82865             12.80561
1293.64259  940.50570   263.00000  23.12680             14.56402
1295.43729  702.31525   295.00000  23.42960             16.68544
1293.12205  966.22047   254.00000  21.67862             14.94603
1290.19048  527.80952   42.00000   8.61119              6.24276
1297.68037  811.60274   219.00000  22.53977             12.51629
1299.97653  724.34742   213.00000  21.65043             12.66411
1298.05031  68.55346    159.00000  16.71854             12.17593
1297.43030  208.87273   165.00000  15.25414             13.77630
1298.59777  395.35196   179.00000  18.03233             12.94279
1299.86307  1347.55187  241.00000  20.84792             14.85393
1304.62752  1030.23826  298.00000  30.29548             13.79312
1300.38071  1443.15736  197.00000  17.89359             14.10719
1299.41584  174.32178   202.00000  18.73302             13.75518
1301.17647  193.36765   136.00000  18.96563             9.33037
1302.02500  343.65000   120.00000  14.58759             10.55930
1307.18504  614.27165   254.00000  29.50111             11.85290
1302.41509  101.89937   159.00000  16.42971             12.33704
1303.28667  133.14667   150.00000  15.14175             12.69968
1302.53642  302.56954   151.00000  15.89939             12.24413
1306.41581  360.09278   291.00000  23.37578             16.29460
1315.21002  530.43914   419.00000  30.59482             18.53652
1306.47059  386.96471   85.00000   11.98888             9.04356
1306.14615  519.95385   130.00000  16.13454             10.35266
1309.82407  38.02778    108.00000  13.44810             10.35536
1316.47619  254.78095   210.00000  19.68417             14.15239
1315.08889  866.81778   225.00000  21.02943             13.67768
1321.08738  1880.71359  206.00000  17.90698             15.20866
1319.18584  213.60177   113.00000  12.21317             11.83200
1321.58084  177.18563   167.00000  16.81010             12.90585
1321.52174  82.24348    115.00000  13.26004             11.24037
1328.01366  921.81148   366.00000  26.31252             20.15400
1325.91775  1305.60173  231.00000  19.83000             14.93317
1327.02985  225.43781   201.00000  18.09022             14.24208
1330.40841  964.09309   333.00000  27.37711             16.16354
1332.33898  409.34322   236.00000  19.78918             15.59185
1330.65639  864.66520   227.00000  22.68577             12.96350
1328.87234  152.23404   141.00000  14.23306             12.75516
1332.00350  334.31119   286.00000  23.81107             15.47705
1332.45695  268.73510   151.00000  15.66130             12.43826
1332.90286  202.62286   175.00000  17.16933             13.00632
1332.03614  510.78313   83.00000   12.94896             8.20428
1334.36076  128.10759   158.00000  14.76638             13.70357
1337.60000  471.05217   230.00000  17.75272             16.72730
1337.06299  370.57480   127.00000  15.22976             10.96001
1342.55459  434.63319   229.00000  23.72380             12.39921
1343.74576  317.06215   177.00000  21.45088             10.61105
1342.86818  553.10000   220.00000  20.73474             13.72309
1340.38760  70.78295    129.00000  13.84186             11.99375
1342.06077  1871.83978  181.00000  16.06393             14.39305
1345.28936  250.81702   235.00000  19.36353             15.63505
1342.85507  161.55797   138.00000  14.64177             12.01979
1345.13714  700.59429   175.00000  17.27973             13.30808
1344.82946  363.46512   129.00000  13.93325             12.00064
1345.27922  746.40909   154.00000  15.15579             13.00301
1343.22414  856.72414   58.00000   9.43085              7.84789
1352.71915  179.82979   235.00000  22.88512             13.37229
1344.98571  305.20000   70.00000   11.60325             7.69647
1346.72928  290.46961   181.00000  18.70249             12.35889
1348.92140  764.21834   229.00000  23.16003             12.88072
1350.76829  152.84146   82.00000   10.89193             9.59203
1352.15447  447.88618   123.00000  12.98206             12.24608
1354.28000  596.80500   200.00000  21.24743             12.13441
1354.90476  886.32900   231.00000  19.55975             15.18110
1353.96386  1006.05422  166.00000  15.02447             14.11928
1356.45755  368.65566   212.00000  18.76569             14.62095
1355.74026  90.44156    154.00000  15.12978             12.99880
1361.37329  470.09247   292.00000  29.62572             14.66165
1356.29747  71.03797    158.00000  15.25025             13.24420
1362.70954  740.29461   241.00000  26.65445             11.90963
1364.22267  1053.27126  247.00000  20.72229             16.30977
1361.69355  443.64516   124.00000  16.47671             9.81610
1363.77114  669.36318   201.00000  17.10986             15.08403
1367.01504  554.34586   266.00000  23.54390             14.47763
1364.31515  947.21818   165.00000  15.81286             13.28897
1365.61905  298.68027   147.00000  15.66752             12.00169
1367.16143  1288.86547  223.00000  17.68971             16.25084
1365.43529  281.40588   170.00000  18.63213             11.98527
1366.12429  761.80791   177.00000  17.10514             13.17421
1373.73585  655.99057   212.00000  29.14729             9.62881
1371.93056  401.86574   216.00000  20.31077             13.81342
1369.56604  601.68396   212.00000  21.44229             12.96709
1370.19333  9.22667     150.00000  15.50693             12.43362
1372.65772  262.26510   298.00000  25.46487             15.10515
1370.41985  1868.59542  131.00000  14.00250             12.03630
1374.38249  883.53456   217.00000  22.31074             12.42638
1378.24516  578.56774   155.00000  30.07360             8.10984
1374.12598  333.70866   127.00000  12.86340             12.60326
1376.44785  681.36196   163.00000  15.32109             13.64431
1377.52239  431.32338   201.00000  23.53435             10.94243
1378.70659  510.25749   167.00000  16.91314             12.58403
1379.52667  983.45333   150.00000  16.27984             11.83838
1380.94656  169.48855   131.00000  13.53261             12.52280
1386.45174  811.62162   259.00000  23.25569             14.39954
1387.31419  127.44932   296.00000  25.71759             15.36444
1388.22467  317.36564   227.00000  20.51481             14.14158
1388.18519  39.66667    108.00000  13.07661             10.55541
1390.99338  175.17219   151.00000  15.73648             12.25531
1391.04583  390.48333   240.00000  24.63231             12.66273
1388.31111  489.11111   90.00000   12.41272             9.30951
1389.19205  284.00662   151.00000  17.98095             10.93820
1391.69364  1027.80347  173.00000  18.88410             11.85752
1393.61778  445.28889   225.00000  20.52181             14.02728
1391.55738  716.56557   122.00000  13.19997             11.82106
1399.90299  910.02239   268.00000  31.62677             11.03351
1396.67451  234.27451   255.00000  21.28975             15.72118
1394.50360  655.35252   139.00000  16.75040             10.61543
1400.87547  947.78868   265.00000  24.85533             13.92801
1395.38824  98.31765    85.00000   11.22454             9.77187
1399.97143  307.87429   175.00000  18.96169             11.88732
1403.74641  641.76555   209.00000  25.85614             10.62369
1398.40000  285.01905   105.00000  13.26447             10.13821
1405.38113  495.58113   265.00000  25.07057             13.72271
1404.38095  959.77249   189.00000  24.86949             9.78871
1404.94301  1271.50259  193.00000  17.73882             14.15522
1403.78832  727.24088   137.00000  18.41808             9.63748
1405.91071  714.58929   168.00000  17.42589             12.33607
1405.92208  222.05844   154.00000  14.44664             13.62484
1407.90533  787.23077   169.00000  18.03065             12.05341
1409.08333  434.50000   108.00000  13.66088             10.18035
1418.16609  870.02422   289.00000  29.62358             12.65785
1411.42604  94.53254    169.00000  20.57884             10.54400
1412.22374  321.31050   219.00000  19.36931             14.45959
1416.34444  446.14074   270.00000  21.82027             16.44749
1412.65000  413.86667   60.00000   9.80292              7.80117
1421.30901  832.36481   233.00000  27.37873             10.98658
1418.64103  72.96923    195.00000  19.40584             12.85194
1418.83152  290.06522   184.00000  19.14814             12.24569
1419.80224  580.79478   268.00000  31.55954             11.79719
1420.52423  37.77093    227.00000  21.45188             13.53177
1420.12371  186.63402   194.00000  19.57961             12.65495
1422.66390  526.59336   241.00000  28.43965             12.08867
1422.82716  891.14815   162.00000  20.81784             10.00547
1421.15169  722.73596   178.00000  15.62100             14.86665
1425.00769  782.77692   260.00000  27.21784             12.38578
1420.34615  954.66154   130.00000  15.23650             10.99541
1423.29947  241.53476   187.00000  16.62934             14.60130
1425.51504  815.87970   266.00000  24.66094             13.74723
1424.81699  209.01307   153.00000  15.78488             12.37427
1424.35437  260.20874   206.00000  18.97995             13.83701
1425.70470  316.21477   149.00000  17.03183             11.43048
1424.19549  353.59398   133.00000  14.69328             11.56809
1429.23280  435.30688   189.00000  16.91229             14.63859
1430.14724  224.07975   163.00000  15.66719             13.26204
1431.83178  415.25234   214.00000  19.24054             14.19469
1434.18072  1718.52610  249.00000  19.55837             16.29414
1434.87013  332.58442   154.00000  16.13794             12.27450
1436.28163  532.52245   245.00000  22.49523             14.04372
1435.88158  363.80263   152.00000  17.28069             11.37419
1437.13551  896.53271   214.00000  17.53765             15.69476
1436.22930  119.74522   157.00000  14.88439             13.50496
1440.56122  603.81122   196.00000  22.45601             11.34593
1436.41667  592.39286   84.00000   12.91544             8.64878
1439.90196  1259.75980  204.00000  19.48337             13.49901
1438.22759  383.51034   145.00000  16.77627             11.11268
1441.66667  80.58915    129.00000  14.09715             11.93072
1444.67339  13.66935    248.00000  19.02630             16.79176
1443.00000  747.06322   174.00000  15.69622             14.13568
1445.04327  40.52404    208.00000  17.87777             14.89838
1445.87047  290.94301   193.00000  17.85496             13.87020
1450.01036  369.31606   193.00000  19.66913             12.56700
1447.22222  205.86111   144.00000  14.61652             12.64615
1447.89262  318.51678   149.00000  14.53654             13.34179
1452.56782  489.18927   317.00000  22.65538             18.12866
1449.64490  671.83265   245.00000  23.70102             13.37344
1447.29730  968.43243   111.00000  14.52482             9.80403
1452.19725  433.44037   218.00000  20.56400             13.70335
1447.57143  843.23214   56.00000   8.88239              8.09863
1451.46667  181.56667   150.00000  14.50824             13.18921
1457.92793  885.46847   222.00000  29.80425             9.84587
1451.57831  543.15663   83.00000   10.83218             9.76370
1457.94857  528.13143   175.00000  18.74934             12.08568
1458.36782  692.47126   174.00000  16.78648             13.53206
1459.17500  762.45000   200.00000  17.12226             14.94450
1459.20588  113.47794   136.00000  15.53185             11.21785
1463.38009  852.01810   221.00000  19.36359             14.59194
1464.61497  1260.80214  187.00000  21.52604             11.12425
1463.03243  69.95676    185.00000  15.59047             15.10767
1462.05851  398.30319   188.00000  21.20493             11.56921
1466.12554  332.92208   231.00000  19.06387             15.52301
1468.11792  270.93396   212.00000  20.69197             13.42495
1470.74427  306.85115   262.00000  22.07621             15.25470
1466.41860  950.54651   86.00000   12.49500             8.97616
1470.19577  611.15344   189.00000  22.26166             10.98051
1469.71724  235.04138   145.00000  15.09140             12.27353
1471.81218  403.33503   197.00000  21.16237             12.36940
1471.49296  557.69484   213.00000  22.48511             12.20134
1471.85629  1813.47305  167.00000  14.95167             14.76961
1474.36437  961.77328   247.00000  19.54961             16.26997
1475.10714  363.05655   336.00000  28.48346             16.02768
1474.98578  155.81991   211.00000  18.57138             14.58116
1476.01200  498.50000   250.00000  24.82709             13.44966
1476.85317  945.69841   252.00000  21.60945             15.31447
1479.20874  810.47573   206.00000  25.25481             10.46365
1475.34167  426.00833   120.00000  15.90426             9.65327
1479.80603  436.32759   232.00000  23.01806             12.89968
1480.56678  470.10749   307.00000  26.45954             15.22818
1474.35455  520.20000   110.00000  12.80818             11.02020
1478.54589  1250.50242  207.00000  20.98059             12.65574
1476.72000  27.97600    125.00000  13.54786             12.09132
1481.42233  921.46602   206.00000  22.68542             11.80318
1479.61479  885.59922   257.00000  21.54870             15.46583
1481.72941  1787.07059  170.00000  16.83897             13.19528
1486.12903  619.97581   124.00000  20.57603             7.80177
1485.34211  212.18421   152.00000  16.24092             11.96161
1484.67143  339.85714   70.00000   10.51933             8.49730
1495.83113  596.21900   379.00000  35.97585             13.96897
1493.19651  284.59825   229.00000  21.62900             13.59068
1500.13655  540.73896   249.00000  29.49588             10.98494
1495.25543  634.97826   184.00000  17.49057             13.45791
1494.49206  369.69841   126.00000  14.89853             10.83233
1495.35465  409.68023   172.00000  16.06937             13.71085
1497.25989  647.60452   177.00000  17.49386             12.94875
1502.72549  676.39216   153.00000  16.86920             11.58652
1501.62346  1735.25309  162.00000  16.64067             12.42427
1505.97738  488.61538   221.00000  23.00854             12.30960
1503.43519  131.86111   108.00000  13.89070             9.98548
1507.15183  319.23560   191.00000  22.66265             10.89097
1505.92169  840.24699   166.00000  15.92192             13.35597
1508.49206  8.72222     126.00000  14.17192             11.35365
1509.52866  334.75796   157.00000  16.82925             12.12584
1516.53744  864.67841   227.00000  31.34433             9.51032
1509.09174  904.44037   218.00000  20.21094             13.93648
1512.33333  881.06667   240.00000  25.59324             12.43933
1510.25989  91.93785    177.00000  17.13935             13.49508
1514.62000  734.66667   150.00000  19.14058             10.27634
1515.69099  663.50644   233.00000  18.86384             15.90099
1513.97315  704.30201   149.00000  16.36002             11.63568
1519.33036  449.11161   224.00000  23.13290             12.48408
1516.41429  1812.04762  210.00000  17.64266             15.18683
1519.00356  500.68327   281.00000  22.05618             16.41125
1521.25698  220.22905   179.00000  16.91824             13.51556
1521.49697  155.09697   165.00000  14.70994             14.27778
1521.82773  1657.71429  238.00000  23.70173             12.92291
1524.19136  831.37037   162.00000  20.37096             10.18938
1526.63687  1848.89944  179.00000  16.72181             13.83494
1529.10776  250.90517   232.00000  23.33620             12.83270
1529.75000  391.37302   252.00000  19.91779             16.34523
1530.68539  696.33708   267.00000  19.82067             17.54593
1532.68807  376.97248   109.00000  14.83619             9.34394
1535.72109  360.10884   147.00000  18.54458             10.53780
1535.61635  421.07547   159.00000  18.71338             10.96443
1537.16256  201.57143   203.00000  17.47821             14.93361
1539.02400  817.45600   250.00000  18.22081             17.52055
1542.82687  1266.98209  335.00000  24.15411             18.03807
1543.99010  517.83168   202.00000  21.26363             12.33192
1545.19903  556.91748   206.00000  19.74848             13.42120
1546.73203  627.97386   153.00000  24.60004             8.27657
1542.91892  1713.58378  185.00000  17.16619             13.74838
1542.22222  115.97222   108.00000  12.32710             11.16788
1548.98805  732.95618   251.00000  29.19743             11.43154
1549.14793  404.68047   169.00000  23.38399             9.46552
1550.75248  617.05446   202.00000  28.22701             9.35494
1548.87805  285.89431   123.00000  14.31054             10.97795
1548.10440  775.22527   182.00000  18.34636             12.69795
1550.71823  360.70166   181.00000  18.49496             12.84648
1552.49756  441.49756   205.00000  19.25767             13.58014
1552.38428  746.84279   229.00000  19.30927             15.29023
1551.13869  874.29197   137.00000  17.18150             10.14350
1556.00766  848.83142   261.00000  26.68859             12.55055
1555.78423  330.57676   241.00000  18.30611             16.77374
1557.33495  532.35437   206.00000  25.81750             12.62230
1558.44309  478.23171   246.00000  24.14651             13.06902
1559.10959  590.73973   73.00000   12.25799             7.93983
1560.13953  518.94767   172.00000  18.66935             11.93908
1562.49102  39.13772    167.00000  15.36029             13.85972
1567.99663  292.87879   297.00000  23.02499             16.67873
1574.14318  899.90604   447.00000  31.46900             18.91031
1574.44344  375.44796   221.00000  22.38975             12.62327
1576.04545  24.56818    176.00000  17.84299             12.73051
1576.48707  563.65086   232.00000  19.02268             15.77356
1580.73113  313.41038   212.00000  20.56354             13.31218
1582.19024  1254.01463  205.00000  17.48630             15.06240
1582.27830  395.14151   212.00000  21.45535             12.61606
1583.26943  665.70984   193.00000  16.19762             15.20019
1586.07792  717.00000   231.00000  21.38286             13.97434
1586.11111  796.84259   216.00000  23.86824             11.71618
1586.17391  639.64596   161.00000  17.09887             12.12754
1582.33333  1537.79365  63.00000   10.10688             7.93794
1583.14679  1823.60550  109.00000  13.56081             10.27262
1588.52675  691.33745   243.00000  19.90384             15.82659
1591.58367  494.61224   245.00000  21.42943             14.75544
1589.64231  946.22692   260.00000  20.16895             16.53167
1592.27451  819.87255   204.00000  20.78323             12.68639
1591.48092  1805.72519  131.00000  15.57555             11.44541
1595.13793  443.14655   232.00000  19.72702             15.33950
1593.94891  398.51825   137.00000  15.80546             11.14641
1600.61765  458.03268   306.00000  26.58801             14.77332
1599.93548  1250.73118  186.00000  16.85337             14.07771
1598.18966  1526.24138  58.00000   9.73783              7.57114
1604.76500  232.47500   200.00000  17.22008             15.12399
1606.97087  383.26699   206.00000  19.18357             13.71561
1605.96875  424.17708   192.00000  18.31041             13.44909
1607.31455  977.53521   213.00000  19.84113             13.70425
1607.69500  668.77000   200.00000  18.15501             14.27659
1615.09901  366.53960   202.00000  22.06894             11.84503
1615.00000  505.12105   190.00000  21.96645             11.49913
1613.76339  765.28125   224.00000  20.73466             13.82744
1618.67568  817.62838   296.00000  25.98439             14.73551
1612.54167  903.29630   216.00000  20.41814             13.75582
1609.29032  990.45161   31.00000   6.85750              5.70016
1615.98611  644.23611   144.00000  15.03002             12.31454
1614.93750  967.82292   96.00000   12.11330             10.15892
1615.79878  1802.97561  164.00000  15.31434             13.88574
1618.01695  334.59322   236.00000  19.43095             15.53966
1621.10345  566.43678   261.00000  23.32145             14.48837
1617.31579  155.60150   133.00000  14.05966             12.06225
1624.21912  740.45020   251.00000  27.60048             11.67569
1620.12322  486.94313   211.00000  22.89950             11.89132
1623.49495  896.83838   198.00000  17.04855             14.92742
1623.73684  669.87218   133.00000  15.03099             11.42254
1622.89189  996.43243   74.00000   11.22224             8.35472
1628.26531  1231.27041  196.00000  17.99522             13.90340
1631.00000  710.09756   205.00000  20.53558             12.92044
1631.30400  975.88400   250.00000  20.06104             16.32142
1630.20541  124.01081   185.00000  16.57222             14.28866
1635.67568  772.10811   185.00000  25.93700             9.52930
1634.39912  513.73246   228.00000  19.03618             15.37713
1639.53361  604.02941   238.00000  22.61119             13.50990
1640.33865  337.08765   251.00000  21.00412             15.27727
1641.30625  484.13437   320.00000  28.98958             14.91526
1642.07527  408.09140   186.00000  20.99603             11.31258
1641.96175  700.93989   183.00000  17.83555             13.32477
1644.85532  428.67234   235.00000  20.74159             14.70062
1645.24742  568.55326   291.00000  22.13403             16.96696
1643.91623  1223.62304  191.00000  16.74378             14.70346
1643.95868  28.53719    121.00000  12.77666             12.19321
1651.00474  718.78673   211.00000  33.47489             8.50046
1642.83333  1201.90476  42.00000   8.29402              6.44025
1650.12139  311.83237   173.00000  15.86859             13.93585
1654.72848  885.50662   302.00000  20.82370             18.58935
1666.48333  835.83333   180.00000  20.94004             11.39587
1669.03623  1021.55072  276.00000  26.56888             13.97941
1669.83913  794.43913   230.00000  24.03277             12.39094
1671.44876  1003.62544  283.00000  27.40131             13.42950
1674.18519  213.48611   216.00000  21.05780             13.19437
1673.10072  551.31295   278.00000  23.45181             15.15943
1679.69611  513.62898   283.00000  29.92409             12.43185
1677.76279  855.13488   215.00000  21.28033             13.52698
1673.42069  87.25517    145.00000  14.66559             12.61303
1675.94709  346.94180   189.00000  17.38154             13.96916
1673.81507  1833.44521  146.00000  15.03069             12.45060
1677.13107  400.97087   206.00000  18.92942             14.13356
1683.92337  947.36398   261.00000  22.22020             15.26431
1682.44512  623.23780   164.00000  15.46788             13.53537
1682.15217  668.25362   138.00000  14.51014             12.18212
1685.52344  282.70312   128.00000  14.63011             11.21566
1691.23529  608.33127   323.00000  26.19383             15.79229
1689.11058  863.01923   208.00000  20.59108             12.96883
1689.02817  491.89202   213.00000  21.07385             14.01320
1692.16364  359.24545   220.00000  22.73166             12.44578
1688.81579  562.28947   152.00000  15.57674             12.57848
1697.41333  189.77333   150.00000  15.34942             12.47878
1697.10476  1012.65714  105.00000  13.40351             10.04769
1702.25664  418.27876   226.00000  20.26555             14.42594
1702.42105  314.52193   228.00000  18.09424             16.08965
1704.32624  566.89362   141.00000  13.94154             13.06195
1704.82353  1828.47647  170.00000  17.15605             12.67087
1711.71717  1202.35354  297.00000  30.22529             12.99368
1706.49390  460.93293   164.00000  16.66782             12.70160
1711.59671  334.61728   243.00000  20.25066             15.40809
1710.13439  611.36759   253.00000  24.91279             14.30170
1709.67442  1055.50388  129.00000  15.35251             10.75302
1712.20705  757.88987   227.00000  23.18981             12.65452
1712.21267  1667.76923  221.00000  21.14977             13.41500
1713.39827  498.65368   231.00000  19.88539             15.07879
1719.07143  1064.14286  168.00000  26.68826             9.91847
1715.70270  212.01351   148.00000  15.13868             12.69595
1720.98598  348.55607   214.00000  27.93124             11.66261
1718.40476  663.01429   210.00000  18.82664             14.38913
1717.65031  815.57669   163.00000  16.47408             12.63365
1719.79348  468.03261   184.00000  17.93080             13.24206
1720.90594  1044.81188  202.00000  20.09300             13.29927
1719.50000  123.08824   136.00000  15.34570             11.32032
1724.18852  321.90164   122.00000  13.38904             11.73799
1724.59302  687.02326   86.00000   12.58224             8.81624
1728.26882  545.46774   186.00000  18.89381             12.56388
1730.85887  566.87500   248.00000  20.08084             16.23808
1727.12821  1050.17949  39.00000   9.62217              5.14104
1732.44068  1056.06780  59.00000   10.33233             7.22716
1741.42553  912.27660   188.00000  18.36264             13.08445
1740.84577  705.76617   201.00000  18.67628             13.82876
1742.64085  380.36620   142.00000  14.13729             12.82540
1748.31429  768.68095   210.00000  18.81736             14.30927
1754.29874  1185.51572  318.00000  30.38967             13.73760
1749.45556  90.07222    180.00000  16.00611             14.37438
1750.68235  576.14118   85.00000   12.82593             8.44414
1757.18182  1697.91322  242.00000  22.03898             14.09464
1757.48252  728.73427   143.00000  16.79007             10.93180
1757.98592  751.37324   142.00000  15.86835             11.42483
1761.57258  936.04839   248.00000  18.67214             17.03139
1764.41951  521.01951   205.00000  19.35631             13.51833
1766.04472  560.01626   246.00000  21.40587             14.92190
1766.01465  878.22711   273.00000  22.04018             16.54992
1767.46964  1069.97976  247.00000  21.68082             14.71764
1765.86449  832.86449   214.00000  19.13901             14.86350
1767.88068  309.04545   176.00000  16.98796             13.35404
1770.10309  904.10825   194.00000  22.49734             10.98766
1773.79070  842.92442   172.00000  17.84276             12.33663
1774.58730  398.38889   126.00000  14.08410             11.47190
1777.68456  644.98658   149.00000  18.54954             10.38250
1783.52510  719.84170   259.00000  24.75194             13.39322
1782.19469  890.39381   226.00000  18.19201             15.85940
1784.24551  853.19760   167.00000  17.18395             12.39410
1790.05023  812.55708   219.00000  26.56446             10.68817
1786.83648  907.81761   159.00000  16.10860             12.84178
1788.07589  941.69196   224.00000  22.50884             12.95151
1786.46602  783.55340   103.00000  12.27951             10.72444
1791.35870  1104.35870  184.00000  16.59164             14.10798
1795.28934  607.25888   197.00000  21.43234             11.75940
1795.51531  842.17857   196.00000  18.55142             13.57009
1796.63158  900.00000   95.00000   11.89111             10.27251
1799.48276  469.54483   145.00000  18.57757             10.01218
1800.70000  730.51538   130.00000  17.30520             10.25566
1801.06294  1666.03497  143.00000  15.88339             11.69537
1802.19913  790.64069   231.00000  19.29700             15.35015
1802.53704  355.07407   108.00000  15.20081             9.14551
1808.28161  149.44828   174.00000  17.17493             13.19821
1813.38545  537.41091   275.00000  24.20694             14.60111
1807.10309  585.13402   97.00000   14.04537             8.90048
1815.21088  277.31973   147.00000  15.65516             12.06209
1821.86224  497.59184   196.00000  20.03052             12.64802
1823.96450  682.50888   169.00000  19.18182             11.23660
1830.78838  1148.30705  241.00000  21.17283             14.52344
1830.13492  925.05159   252.00000  20.11253             16.06070
1830.24528  135.01258   159.00000  14.83581             13.69626
1834.16803  950.95492   244.00000  21.37631             14.61232
1836.32530  787.45382   249.00000  25.57983             12.86917
1843.38596  506.49561   228.00000  21.86891             13.30870
1842.75275  1681.58791  182.00000  18.54831             12.63003
1843.28481  883.70253   158.00000  15.21182             13.35829
1849.03767  802.15411   292.00000  27.88535             13.94625
1850.85841  971.02212   226.00000  22.27156             13.02969
1848.26596  642.83511   188.00000  17.15255             13.98364
1848.63194  699.01389   144.00000  14.78550             12.46312
1854.83740  1105.44173  369.00000  27.82367             17.11210
1853.22709  952.70120   251.00000  20.89383             15.90056
1853.47514  492.80663   181.00000  16.54497             13.97941
1854.15484  348.44516   155.00000  16.35119             12.09214
1856.59756  680.66463   164.00000  16.51576             12.82566
1858.90000  771.60000   180.00000  16.73480             13.73656
1862.38819  1586.70042  237.00000  19.42700             15.76120
1866.59729  980.42986   221.00000  18.35250             15.51078
1875.31797  473.59447   217.00000  17.94752             15.52452
1877.22439  545.59024   205.00000  19.89397             13.14076
1880.77419  931.92473   279.00000  24.39604             14.90900
1877.53165  722.92405   79.00000   12.93510             7.88639
1881.84579  1109.70561  214.00000  17.10748             15.97652
1883.09594  1613.09963  271.00000  20.36858             17.18972
1884.56250  707.63194   144.00000  19.84836             9.32925
1888.22599  221.63277   177.00000  18.45728             12.24760
1892.03774  982.55346   159.00000  15.94007             12.77613
1893.70386  1549.31330  233.00000  19.84377             15.00865
1896.44324  738.97838   185.00000  20.15247             11.70366
1904.08015  780.86641   262.00000  22.15312             15.20031
1907.87766  406.12766   188.00000  16.89703             14.38790
1907.00000  1672.67164  67.00000   10.90114             8.04695
1911.17117  489.27928   111.00000  14.92163             9.50994
1916.14229  927.18972   253.00000  20.19166             16.08861
1915.36126  583.47120   191.00000  16.99122             14.50413
1924.69141  972.64062   256.00000  20.31413             16.35339
1924.11441  993.50000   236.00000  19.06997             15.79717
1929.13208  751.38365   159.00000  17.58519             11.66735
1931.45098  1078.80882  204.00000  17.86982             14.58602
1935.96653  831.15481   239.00000  21.30658             14.34966
1936.51852  460.89418   189.00000  17.08226             14.11708
1938.71654  287.97638   127.00000  14.12377             11.99131
1940.32432  327.45405   185.00000  16.23749             14.77434
1940.08597  992.49774   221.00000  17.87238             16.07358
1944.16216  425.84324   185.00000  17.11489             13.78353
1952.26180  812.40773   233.00000  21.49566             13.93177
1950.90303  1496.46061  165.00000  18.45476             12.00094
1956.75417  980.30833   240.00000  19.42108             15.80296
1954.85714  704.91729   133.00000  13.55443             12.50170
1964.08898  1113.15678  236.00000  18.94555             15.90662
1965.82222  1590.72000  225.00000  19.37323             14.82409
1968.21395  942.31628   215.00000  17.93948             15.35473
1971.63519  990.84120   233.00000  18.56649             16.05828
1969.01053  1491.08421  95.00000   12.67837             9.81441
1971.12000  490.79333   150.00000  15.42365             12.52293
1971.69128  733.20805   149.00000  15.96813             11.90493
1977.65922  1005.38547  179.00000  15.68263             14.60728
1989.30651  667.45211   261.00000  21.69149             15.43597
1986.01198  1118.71856  167.00000  16.53314             12.91413
1987.43750  683.75000   128.00000  14.47849             11.84529
1994.18862  998.03892   334.00000  24.98158             17.35015
1994.11913  1150.15523  277.00000  22.61003             15.68464
1997.14737  738.74737   95.00000   14.84830             8.39872
2001.18974  942.00513   195.00000  19.04788             13.15496
2002.71759  766.50926   216.00000  19.39563             14.23919
2004.09524  1016.73214  168.00000  16.76775             12.97349
2006.98742  1464.30818  159.00000  17.44321             11.77668
2015.72989  1010.11494  174.00000  16.20670             13.72843
2020.61364  1188.63636  176.00000  16.52743             13.76339
2028.13158  689.66842   190.00000  26.12578             9.74826
2026.72727  1203.05000  220.00000  18.92605             14.87621
2034.76442  1108.12500  208.00000  17.61063             15.63148