# Filename: Nuclei_416_ctrl_010.npz
# Voxel size (nm): (108, 108)
# Area quantity: voxels
# Num nuclei detected: 981
Y           X           AREA       MAJOR_AXIS_LENGTH    MINOR_AXIS_LENGTH
6.84066     1161.83516  182.00000  17.33084             13.69964
16.49785    608.79828   233.00000  20.55448             14.48469
29.05051    625.97475   396.00000  25.82970             19.83588
37.08711    460.28223   287.00000  24.95344             14.71067
47.24324    1160.39189  370.00000  27.23675             17.60003
45.32031    98.53125    256.00000  20.28819             16.14720
68.63801    1699.85520  221.00000  19.79535             14.31867
74.78632    1168.33333  234.00000  23.57778             12.73827
87.08394    1099.36861  274.00000  24.64469             14.18499
109.08527   601.36434   258.00000  22.90546             14.45169
119.10667   1202.99333  150.00000  16.55677             11.59930
126.63529   1060.52157  255.00000  27.62140             12.08422
137.33935   615.66426   277.00000  24.13491             14.80258
140.27143   1164.97500  280.00000  25.62702             14.24515
141.42905   601.72973   296.00000  25.99456             14.58269
151.67054   175.13953   258.00000  29.55551             11.92308
155.44207   1152.48780  328.00000  32.30286             13.32451
159.77852   487.30537   298.00000  24.86180             15.48207
158.93583   1747.63102  187.00000  21.20001             11.36627
170.23602   440.65528   322.00000  26.80069             15.55511
181.03226   1656.82949  217.00000  17.99924             15.45520
183.53419   1705.08120  234.00000  19.94237             15.00165
187.43697   1453.40756  238.00000  22.36560             13.63941
185.81102   1528.82283  254.00000  21.41645             15.18113
205.84807   1082.96685  362.00000  32.37496             14.59299
204.86040   100.81481   351.00000  32.07400             15.95022
204.12000   1811.83200  125.00000  17.76645             9.41612
215.26792   493.58491   265.00000  23.81514             14.34606
215.43275   1190.20760  342.00000  27.71141             16.19455
220.84407   1107.08814  295.00000  30.78220             12.65382
220.72438   861.36042   283.00000  24.63537             14.68284
219.43310   562.83451   284.00000  21.27279             17.38142
232.24235   521.01020   392.00000  29.15749             17.53019
234.07192   1230.24658  292.00000  22.07731             17.70775
235.51119   552.82090   268.00000  19.50718             17.54225
238.06790   1830.07407  162.00000  18.80886             10.96532
248.10127   407.83544   237.00000  25.76061             13.35638
258.42763   178.04934   304.00000  27.69902             14.63807
256.48936   1436.56738  282.00000  23.57646             15.32409
259.80000   1754.03636  220.00000  20.14246             13.95650
275.59032   808.80968   310.00000  26.01194             15.32649
283.72176   459.41047   363.00000  28.02235             16.66567
294.25301   1853.18072  166.00000  21.11903             10.23371
292.57962   1935.69427  157.00000  17.48570             11.50756
302.45185   214.30741   270.00000  23.19025             15.00458
309.47531   815.88272   324.00000  31.06747             13.34685
318.65021   1741.86831  243.00000  23.26504             13.35956
319.88028   1356.09155  284.00000  21.54470             16.82798
320.55814   1099.19934  301.00000  20.98714             18.47059
321.90966   461.36137   321.00000  22.06555             19.10165
323.03625   205.38369   331.00000  31.12281             13.86917
329.60592   905.58998   439.00000  26.21633             23.02922
332.12195   1058.57143  287.00000  25.12605             14.70499
351.43144   954.93645   299.00000  25.13693             15.39866
357.75556   409.17778   315.00000  21.86098             18.46080
366.37719   1375.68421  342.00000  28.66938             15.40321
369.88922   846.72156   334.00000  23.53277             18.28269
382.57682   204.96496   371.00000  25.50912             18.55670
384.27273   1780.13853  231.00000  17.84584             16.58543
382.65000   596.35000   40.00000   11.09276             4.84053
390.10543   992.24601   313.00000  23.65169             17.32570
400.18135   1923.90674  193.00000  17.63866             13.99944
402.91039   576.94982   279.00000  21.55134             16.64132
399.74545   600.23636   55.00000   10.57455             6.69282
406.80712   695.22255   337.00000  22.53940             19.17776
418.40576   1232.68586  382.00000  34.21395             14.44320
413.22148   1003.60738  298.00000  22.73332             17.24513
416.28205   566.10623   273.00000  19.05153             18.43422
428.85000   532.01071   280.00000  27.77140             13.05763
434.91566   698.38153   249.00000  19.43119             16.50223
437.81022   1723.95985  274.00000  24.65750             14.28148
439.85818   906.61455   275.00000  23.25479             15.11337
443.67293   804.30827   266.00000  19.70456             17.51868
447.17073   1762.04065  246.00000  19.86122             16.55044
457.28866   772.72852   291.00000  24.23685             15.40387
461.30204   807.95510   245.00000  25.20109             12.60582
466.62832   1073.51770  226.00000  20.98998             13.81554
474.69841   838.44127   315.00000  33.85943             12.00013
470.08130   1960.80488  123.00000  13.54575             11.69779
477.25523   1882.31799  239.00000  23.74599             12.87579
478.78947   1931.01053  95.00000   13.00762             9.50270
489.72464   17.27899    276.00000  22.58555             15.62467
490.62147   1893.59887  177.00000  20.15463             11.53710
497.59902   651.88753   409.00000  30.52159             18.08632
493.18301   1912.01961  153.00000  17.41950             11.28679
498.37915   1831.90047  211.00000  16.94032             16.00498
500.49143   1879.45143  175.00000  16.47150             13.57516
502.59489   872.74088   274.00000  19.24450             18.46738
503.80982   2011.98160  163.00000  17.54436             11.84062
512.59231   1049.49231  260.00000  27.52601             12.15149
508.26752   1964.04459  157.00000  17.87958             11.28032
517.72687   923.61674   227.00000  20.49664             14.28318
521.20062   1020.75000  324.00000  28.98786             16.43351
515.89899   992.57576   99.00000   12.14037             10.46171
523.39130   506.59783   276.00000  26.06512             13.54886
524.98671   1367.55150  301.00000  25.15217             15.75058
519.71318   1963.03101  129.00000  14.41540             11.44909
521.32061   2023.35115  131.00000  14.93617             11.86098
531.04301   806.12186   279.00000  23.68080             15.48033
531.01449   820.98913   276.00000  24.13514             14.65091
533.60949   889.80657   274.00000  27.61770             12.69540
535.79821   1977.66816  223.00000  17.59623             16.32832
540.69381   456.35831   307.00000  27.03948             14.55920
542.58421   1122.63684  190.00000  20.73059             11.81872
549.77882   903.98754   321.00000  29.58624             13.93465
550.94983   1943.33779  299.00000  26.07854             15.11595
549.83471   967.63636   242.00000  21.46315             14.71223
549.00000   947.67742   31.00000   7.97656              4.95137
557.94306   1464.65836  281.00000  20.32888             18.25771
563.56734   932.35244   349.00000  32.08646             14.22933
562.70956   643.93750   272.00000  23.75084             14.72542
559.86441   957.05085   118.00000  16.64656             9.27073
561.74566   1989.70520  173.00000  19.39346             11.37129
561.18848   2006.23037  191.00000  19.15898             12.72577
562.72778   1040.73889  180.00000  17.04008             13.56398
576.73592   1914.00704  284.00000  29.92997             13.29338
574.35359   943.67956   181.00000  18.86664             12.64247
572.14563   1027.41748  103.00000  13.04548             10.03529
570.34146   856.14634   41.00000   8.03359              6.58043
581.12025   1177.92089  316.00000  27.88566             15.24593
582.10000   773.16296   270.00000  22.09210             15.62733
586.20063   1597.95298  319.00000  28.07232             14.60983
585.90654   522.87539   321.00000  23.07616             17.94244
586.44242   955.40000   165.00000  16.41116             12.96289
592.14030   34.87761    335.00000  27.22930             16.01879
590.23280   1092.87831  189.00000  20.46049             11.86474
589.97758   2001.21525  223.00000  17.39715             16.32895
588.71379   834.60345   290.00000  27.34035             13.85302
592.49612   997.48062   129.00000  13.85993             11.99308
596.53744   736.51101   227.00000  19.18431             15.19011
606.13592   650.16505   309.00000  22.01392             18.36247
603.46032   1013.57143  189.00000  17.57403             13.76750
605.92123   805.32192   292.00000  27.33132             13.75750
610.46032   980.06878   189.00000  20.16036             12.12277
611.57872   1509.56596  235.00000  25.09127             12.00335
611.34634   1002.71220  205.00000  18.77845             14.14725
611.61654   1025.06767  133.00000  14.52353             11.84591
615.91743   747.66972   218.00000  18.13293             15.77547
619.77813   1599.89062  320.00000  21.93665             18.63610
620.32895   1030.67105  76.00000   10.83250             9.20152
630.00000   390.71947   303.00000  22.53869             17.58044
632.34601   1064.31179  263.00000  23.80995             14.74406
637.67250   470.77000   400.00000  31.94168             16.15198
632.00687   969.60481   291.00000  22.41062             16.54589
627.75676   1024.97297  37.00000   8.25049              5.74674
638.04065   1029.69919  123.00000  15.66770             10.00529
639.38579   908.55330   197.00000  17.65563             14.37794
646.43810   805.54286   210.00000  18.82736             14.51540
646.47451   1790.72549  255.00000  21.45102             15.23008
647.54787   757.09043   188.00000  19.48523             12.40062
650.36000   1070.00000  200.00000  23.30417             11.20546
656.33766   2021.26623  154.00000  22.80801             9.26129
657.28014   529.01064   282.00000  25.62876             14.06196
659.33005   797.77340   203.00000  23.38553             11.38969
652.21795   1150.08120  234.00000  28.61906             10.59827
660.00977   1055.63192  307.00000  22.97428             17.21885
659.87500   654.35938   64.00000   9.77702              8.32727
664.25401   1117.01070  374.00000  28.83924             17.22055
670.77686   742.08264   242.00000  32.40047             9.81217
664.20225   1019.65169  178.00000  17.25859             13.16257
670.11628   918.80930   215.00000  19.48549             14.18880
670.96759   933.86111   216.00000  19.00271             14.98076
676.35517   1545.33793  290.00000  26.38639             14.37608
675.75269   779.84409   186.00000  17.58515             13.51133
673.76786   993.08036   112.00000  12.76272             11.16137
674.85000   1054.94167  120.00000  12.92004             12.26342
675.72821   1216.78462  195.00000  17.19360             14.47241
678.58672   960.29151   271.00000  21.85961             16.12172
676.29082   1889.61735  196.00000  18.29310             13.65289
683.08756   1157.30876  217.00000  19.32450             14.39642
685.07492   619.72964   307.00000  24.00222             16.61645
686.83270   821.81369   263.00000  24.04114             14.38635
688.02116   1026.10053  189.00000  21.54063             11.42548
690.30201   601.98322   298.00000  22.26776             17.40549
689.35238   1045.21905  315.00000  23.51189             17.14379
686.45192   1183.60577  104.00000  11.75607             11.36974
692.20536   876.30804   224.00000  20.97489             13.67233
688.10345   920.96552   29.00000   6.96956              5.33633
695.30279   1117.90837  251.00000  22.57332             14.52622
698.40928   732.55274   237.00000  21.79703             13.94944
693.56589   1070.82171  129.00000  14.52427             11.44325
698.32353   1227.43277  238.00000  19.90113             15.51188
702.72840   897.66667   243.00000  22.07675             14.09655
706.38806   533.45522   268.00000  24.84135             14.21330
698.95588   1063.05882  68.00000   12.53052             6.98441
706.13907   1281.34437  302.00000  24.24901             16.67066
703.60323   573.83226   310.00000  21.56644             18.55968
702.18653   972.44041   193.00000  16.35032             15.11585
707.73404   1329.98404  376.00000  36.23677             13.62629
707.08185   363.52669   281.00000  25.56235             14.07501
706.42321   769.53925   293.00000  26.37877             15.13672
702.58854   1087.81250  192.00000  19.15735             12.83775
706.51020   1814.31837  245.00000  21.22011             14.77622
705.87156   848.54128   109.00000  13.37113             10.45938
709.82635   926.42515   167.00000  20.58498             10.97838
706.40741   942.50370   135.00000  14.12975             12.41168
707.21893   1126.20118  169.00000  14.99035             14.61637
706.05405   876.02703   74.00000   11.05236             8.53311
705.44681   1242.08511  47.00000   8.78012              6.92386
712.67170   438.46792   265.00000  22.91117             15.05993
710.47778   836.28889   90.00000   12.32538             9.31830
714.03030   1015.27879  165.00000  17.42309             12.09867
710.66038   1212.56604  53.00000   8.42988              7.99074
715.65625   1032.87500  128.00000  16.85127             9.77979
715.13665   1261.73913  161.00000  16.16538             12.76062
713.68595   820.85124   121.00000  14.06068             11.06711
716.04636   1135.45695  151.00000  14.67966             13.15998
716.03226   2040.78065  155.00000  15.86492             12.46446
722.50566   1867.20377  265.00000  27.23971             13.22280
716.37600   889.16000   125.00000  14.05849             11.58237
719.76806   1059.87452  263.00000  24.42835             14.55599
717.25439   805.56140   114.00000  12.53780             11.61770
720.73171   1041.68293  123.00000  17.35410             9.26275
719.19718   517.51408   142.00000  15.07496             12.19128
724.62319   139.15942   345.00000  26.86937             16.73933
722.54762   789.88095   126.00000  12.94012             12.40474
722.70874   922.19417   103.00000  13.15474             10.73159
724.30597   824.06716   134.00000  14.47774             12.03681
721.71429   847.14286   35.00000   8.80818              5.04669
727.07968   935.78884   251.00000  21.17625             15.64428
728.52863   999.79736   227.00000  21.53519             13.67615
724.80460   888.49425   87.00000   13.86270             8.23201
726.95683   1025.15108  139.00000  14.55736             12.19762
730.89219   1200.54275  269.00000  20.04911             17.63498
728.36605   199.75597   377.00000  38.67240             12.52101
730.08438   1363.50938  320.00000  24.32781             17.09949
733.03226   1922.67742  155.00000  17.64264             12.51518
732.75000   519.91667   216.00000  16.80589             16.41608
732.64368   872.93103   174.00000  19.04179             11.87644
733.45562   1216.04142  169.00000  16.78489             12.81578
738.01370   1011.89498  219.00000  23.59733             11.92941
735.63850   1138.00000  213.00000  19.59140             13.96850
732.29605   1153.48684  152.00000  17.57128             11.13802
737.04981   1902.77395  261.00000  28.95063             12.45344
735.67677   853.92929   198.00000  18.46972             13.78868
740.20000   1392.20465  215.00000  26.78944             10.40805
734.01648   1090.46154  182.00000  22.06927             10.71491
736.08543   1236.64322  199.00000  19.93362             12.76675
736.92571   813.19429   175.00000  16.54368             13.54918
743.52071   1061.46154  169.00000  20.78068             11.42572
741.04407   1454.88814  295.00000  25.16546             15.30572
742.34307   1175.49635  137.00000  15.66422             11.20043
744.92718   657.49029   206.00000  20.69483             12.84209
746.72956   743.35849   159.00000  17.44754             12.04937
751.51032   1030.55457  339.00000  30.63325             14.33882
748.67429   872.59429   175.00000  17.84555             13.05262
756.20173   933.85303   347.00000  32.58994             15.03579
752.34483   673.24138   203.00000  20.81335             12.57056
748.36000   724.08000   75.00000   10.69539             9.12831
749.92513   1242.34759  187.00000  18.04309             13.26475
753.89806   1261.48544  206.00000  20.71328             12.82723
754.31797   1943.29954  217.00000  24.20116             11.66376
754.57062   778.00565   177.00000  16.51857             13.67190
763.01634   1402.12745  306.00000  32.89574             12.25698
757.85978   735.77860   271.00000  23.85503             14.80977
756.42449   532.04898   245.00000  19.31918             16.19507
753.83721   690.30233   86.00000   11.52163             9.72497
753.17143   970.40000   70.00000   9.92567              8.96626
756.24699   1286.01205  166.00000  22.39182             9.62372
756.16981   1001.73585  53.00000   11.47336             6.01188
763.90535   888.20576   243.00000  28.63491             10.85458
764.07463   1060.43284  201.00000  26.75190             10.56678
760.76220   850.23171   164.00000  15.83759             13.23675
762.38649   310.92973   370.00000  35.30534             13.51413
763.71094   942.69531   128.00000  14.69780             11.11991
764.01435   1072.49282  209.00000  19.57855             13.68429
761.56410   1207.25641  39.00000   8.38328              5.99896
767.62759   839.19310   145.00000  15.58921             11.97737
768.07692   1289.13846  130.00000  14.52419             11.81787
768.28571   1328.59664  119.00000  12.47512             12.14720
770.01807   799.92169   166.00000  15.50404             13.65684
768.04225   974.54930   71.00000   10.25160             8.80576
769.21875   2022.71875  128.00000  14.08410             11.65577
773.13846   1012.38974  195.00000  17.83106             14.04656
779.26351   1151.82095  296.00000  30.03438             12.86263
768.76667   959.30000   30.00000   6.83675              5.56307
770.11029   1185.77206  136.00000  17.34417             10.82648
771.03448   1108.74138  58.00000   13.69327             5.44169
778.61714   1240.54286  175.00000  22.58037             10.18252
779.67586   1751.33793  290.00000  24.43596             15.34465
778.99515   942.30097   206.00000  22.71917             11.64112
776.49412   1099.11176  170.00000  15.22327             14.26158
779.78049   1181.65854  164.00000  21.20557             10.05253
777.77381   1260.27381  168.00000  17.56601             12.21584
776.62500   2009.93382  136.00000  17.16067             10.25055
775.70000   2041.88333  120.00000  12.73972             12.04610
781.28614   217.45482   332.00000  20.94894             20.39824
780.94771   1323.64052  153.00000  17.00127             11.66341
782.64904   1309.35096  208.00000  20.78669             12.82316
779.38000   1072.10000  50.00000   8.57710              7.38396
786.61654   1827.59398  266.00000  21.10743             16.36098
783.58889   2028.73333  180.00000  19.65739             11.68334
786.85075   84.27985    268.00000  21.14037             16.33641
785.63333   737.97778   180.00000  17.17466             13.47693
783.10448   1230.18657  134.00000  14.11440             12.26784
787.66935   908.89919   248.00000  20.39680             15.76216
788.59127   1136.61111  252.00000  23.90370             13.49766
789.76947   787.94081   321.00000  24.15855             17.21208
792.99679   882.87500   312.00000  27.42355             14.76678
788.12274   1116.80144  277.00000  20.07970             17.62441
789.30638   760.98723   235.00000  21.60974             14.07124
791.08947   986.92632   190.00000  24.21807             10.15909
788.40741   1202.32593  135.00000  14.84447             11.68971
787.87597   2013.45736  129.00000  13.83590             12.01864
791.50628   1883.71967  239.00000  18.45830             16.66127
790.18750   809.86979   192.00000  16.55433             14.77172
786.55556   1024.84444  45.00000   8.47443              6.72084
784.60000   1030.75000  20.00000   5.92886              4.25307
793.28966   715.37241   145.00000  18.33420             10.08339
789.36364   965.63636   77.00000   11.47619             8.62272
790.01695   1102.91525  59.00000   10.30840             7.43266
795.24444   836.88889   90.00000   17.58333             6.88199
791.24242   1003.66667  66.00000   10.01066             8.46251
792.41294   1045.24876  201.00000  27.78321             10.25528
800.38376   943.50185   271.00000  23.68639             14.74233
793.28889   980.64444   45.00000   10.49964             5.51357
803.96474   149.25441   397.00000  38.00994             13.69377
799.82051   852.59829   117.00000  13.04025             11.46901
801.32168   1195.73427  143.00000  16.90278             10.84732
810.57098   973.28076   317.00000  48.19041             9.13355
801.66854   1047.91573  178.00000  16.81842             13.55595
807.06625   894.77918   317.00000  23.63771             17.87456
800.83562   1262.15068  73.00000   11.46213             8.26873
804.92135   1004.79775  89.00000   14.04957             8.14283
813.89514   721.26087   391.00000  26.41549             19.51025
809.63878   816.11407   263.00000  21.22597             16.18803
811.81503   839.48555   173.00000  19.01763             11.74974
808.86084   1311.71845  309.00000  29.94714             13.33359
812.15847   1402.52459  183.00000  16.26183             14.35059
814.23204   1212.72928  181.00000  16.82048             13.75832
815.06780   1290.19915  236.00000  22.40019             13.70752
812.63043   1152.10870  46.00000   8.19375              7.08098
817.43671   1334.51899  158.00000  14.90139             13.51437
825.22569   753.50694   288.00000  28.36142             13.01207
824.06996   909.78189   243.00000  23.22588             13.57917
820.39645   1988.54438  169.00000  16.67559             12.93473
825.43071   539.45693   267.00000  20.10638             17.00147
825.87565   1231.66321  193.00000  16.18345             15.33571
828.67266   1137.84892  278.00000  22.59259             15.73929
833.52012   947.25387   323.00000  28.61199             14.54599
824.38356   1169.26027  73.00000   12.42794             7.49970
825.40741   974.62963   27.00000   7.36655              5.06204
838.52344   782.20833   384.00000  29.77519             17.00446
830.20814   884.76018   221.00000  20.29016             14.16704
832.77982   849.44037   218.00000  18.41508             15.54092
842.82315   1068.52733  311.00000  33.95690             12.31938
836.46429   798.94643   224.00000  19.17109             15.34750
838.58113   552.70566   265.00000  21.73640             15.90964
837.64286   2008.61905  210.00000  19.95922             13.46353
838.38039   667.56863   255.00000  21.02160             15.50964
838.48980   1240.69388  147.00000  14.89292             12.63266
839.09607   1315.41048  229.00000  21.14592             13.86010
839.81818   1188.43850  187.00000  17.53502             14.01062
838.85000   977.15000   40.00000   9.22012              5.50176
841.81325   1173.87952  166.00000  16.24463             13.08715
843.84681   1943.82979  235.00000  23.26455             12.97913
844.86167   1422.72334  347.00000  27.52252             16.99060
845.60268   8.37946     224.00000  19.31782             14.87540
844.23469   1285.80612  98.00000   13.22069             9.51347
844.57778   987.33333   45.00000   8.19122              7.06214
849.83133   1231.00000  249.00000  21.11865             15.03107
847.38971   1297.11765  136.00000  14.48509             12.14138
850.53000   1985.77500  200.00000  19.19645             13.30383
856.64901   61.68212    302.00000  24.56568             15.93652
849.47059   1196.89706  68.00000   10.34736             8.37619
853.80383   896.28708   209.00000  19.66527             14.04345
850.26437   1188.11494  87.00000   11.34597             10.03712
855.01064   796.48936   188.00000  18.65467             12.90883
852.67249   942.89520   229.00000  22.88551             12.90556
854.62000   848.29000   100.00000  11.77244             10.89558
855.95987   1319.15385  299.00000  26.83535             14.31775
857.21711   1366.16447  152.00000  17.49512             11.10226
857.36500   819.80000   200.00000  17.24372             14.79873
863.98271   1144.89337  347.00000  25.19844             17.75689
859.38571   1296.27619  210.00000  18.56049             15.45323
862.42322   1765.46442  267.00000  22.57283             15.29292
861.18421   1275.43421  152.00000  16.06097             12.20705
861.01905   840.22857   105.00000  12.89991             10.47756
860.00000   857.79070   86.00000   12.14060             9.10904
863.66667   1439.59091  132.00000  13.83302             12.30218
868.74427   666.45802   262.00000  28.09101             12.85816
866.25893   851.00000   112.00000  14.96055             9.67149
864.20896   991.73134   67.00000   10.47918             8.18292
869.61868   1370.44747  257.00000  26.84670             12.46367
880.83646   1400.43432  373.00000  41.08361             11.61743
874.87398   731.84146   246.00000  25.48083             12.71410
870.64727   1094.84364  275.00000  25.13295             14.06958
877.93559   1178.44746  295.00000  37.40919             10.27988
874.61303   689.48276   261.00000  24.85693             13.57513
868.02885   1192.62500  104.00000  12.27496             10.86917
877.25872   1335.23837  344.00000  36.48236             13.57277
871.08025   1414.41975  162.00000  15.49211             13.36795
874.04188   970.51832   191.00000  19.88403             12.68735
877.94328   1032.22090  335.00000  30.40580             14.31183
874.20219   1427.30055  183.00000  20.85274             11.26936
872.92935   2003.27717  184.00000  18.01895             13.03206
875.30435   1436.53043  115.00000  15.85569             9.59734
873.50000   861.00000   48.00000   8.60259              7.02345
878.96000   962.28000   125.00000  17.97237             9.33306
880.86531   1253.82857  245.00000  23.43433             13.51818
879.20567   1219.09220  141.00000  16.82329             10.74104
880.64596   989.00000   161.00000  16.74120             12.38964
888.84932   905.60548   365.00000  30.15375             15.62530
880.53947   1282.97368  152.00000  15.21757             12.77209
889.73961   1318.50416  361.00000  31.72247             14.74403
881.81250   838.81250   144.00000  15.81650             11.61618
888.33808   1009.66904  281.00000  24.91780             14.62140
887.36402   1195.62762  239.00000  19.26269             15.93420
886.09202   1227.79141  163.00000  16.72421             12.53645
890.25962   765.95673   208.00000  20.28991             13.16973
892.56786   843.91071   280.00000  22.53222             17.08919
901.59475   1077.20117  343.00000  39.20343             11.40468
890.10000   982.65000   40.00000   7.62087              6.67850
898.15867   949.68266   271.00000  27.67155             12.98900
896.53271   97.27103    321.00000  28.55578             14.51988
893.43750   1002.18750  32.00000   7.73905              5.33686
902.69759   1330.17869  291.00000  21.48583             17.32964
901.86047   1975.50000  172.00000  15.45117             14.19863
904.35537   963.84298   242.00000  20.02122             15.50607
902.19697   998.07576   66.00000   9.47605              8.89882
902.73050   2039.36170  141.00000  16.98355             10.57993
905.73333   774.05714   210.00000  18.81037             14.37555
906.46544   2019.52535  217.00000  17.77419             15.57835
908.75000   865.74457   184.00000  18.06179             13.16078
911.61423   584.37828   267.00000  20.30693             16.98576
910.89062   1121.64062  192.00000  16.49366             14.96222
912.24797   796.74390   246.00000  21.15999             14.88090
914.05298   1247.25828  302.00000  23.61954             16.34879
915.60448   162.39925   268.00000  22.15390             15.98419
918.19095   835.49749   199.00000  19.89983             13.07174
913.77143   1003.57143  35.00000   7.07588              6.24158
921.80455   777.09545   220.00000  21.04322             13.54013
921.58519   1194.79630  270.00000  22.94368             15.35386
923.78182   821.70545   275.00000  24.50118             14.60911
915.30303   986.09091   33.00000   6.87455              6.07925
922.60851   746.65532   235.00000  20.98160             14.60102
922.42233   997.25728   206.00000  19.24674             14.02978
918.42553   1163.17021  47.00000   8.17922              7.27829
924.93458   1348.38941  321.00000  22.30308             18.51067
923.83772   1768.03509  228.00000  19.62453             15.09902
922.82911   1997.59494  158.00000  15.27196             13.20256
927.12500   71.73106    264.00000  24.94160             14.33031
928.50000   1277.08468  248.00000  24.43145             12.99462
927.01529   1326.61468  327.00000  23.95881             17.55550
927.22707   959.76856   229.00000  20.92896             13.98126
932.24715   1148.46768  263.00000  25.13266             13.64772
934.33784   725.50338   296.00000  22.91840             17.08963
929.00877   861.73246   228.00000  20.85339             14.03218
928.37037   1309.80247  162.00000  16.08821             12.84590
934.61353   836.76812   207.00000  21.54503             12.32260
933.08268   233.64961   254.00000  22.17661             14.68991
935.53191   988.12766   141.00000  14.21560             12.63093
935.78000   1294.71333  150.00000  15.46090             12.52802
939.74000   1191.90333  300.00000  26.15339             14.66954
944.15185   30.12222    270.00000  25.74479             13.51672
941.00000   746.90476   252.00000  21.50580             15.14658
939.85057   1285.27586  87.00000   10.96199             10.24785
944.70122   580.70122   328.00000  23.26359             18.03378
944.47407   707.23333   270.00000  21.09794             16.97085
946.80717   1855.36771  223.00000  22.87380             12.49590
944.04046   996.61272   173.00000  17.49229             12.71968
944.12245   1238.89796  147.00000  15.58026             12.25156
944.87218   1986.82707  266.00000  21.88079             16.36826
946.90355   880.22843   197.00000  16.55969             15.26620
948.52479   1033.28512  242.00000  23.22565             13.58850
949.49189   1047.84865  185.00000  19.96525             11.86249
953.86262   786.60064   313.00000  31.50698             13.18084
955.62271   696.55678   273.00000  25.68983             13.86236
952.21212   907.46970   132.00000  17.48257             9.64464
960.65827   1014.17626  278.00000  28.69355             12.84713
957.21598   1248.07396  338.00000  25.32356             17.42648
954.45304   967.77901   181.00000  17.23789             13.39765
956.27863   1171.76718  262.00000  21.00446             16.22553
958.69057   620.12075   265.00000  20.70429             16.38951
958.75000   1320.59722  216.00000  17.46228             15.87425
964.04710   832.57246   276.00000  22.29425             15.99658
964.10900   977.45498   211.00000  17.47832             15.63116
965.72928   1152.81215  181.00000  16.73203             14.13523
970.17808   1004.13242  219.00000  21.54906             13.08423
970.62769   1768.14462  325.00000  37.59532             11.26640
973.38838   1928.38532  327.00000  31.91367             13.42579
970.42718   753.01294   309.00000  26.03737             15.36735
972.50691   1128.23963  217.00000  21.31307             13.18862
971.54587   875.86697   218.00000  21.46567             13.09702
971.17553   1200.57979  188.00000  17.84403             13.49452
974.18889   1161.41111  180.00000  18.98674             12.14568
984.62222   363.20988   405.00000  33.58995             16.61610
980.85135   937.68468   222.00000  27.03761             10.47674
976.61506   233.97071   239.00000  19.82076             15.47030
977.30769   899.37104   221.00000  19.22417             14.84029
984.16716   1264.54252  341.00000  32.55456             13.50857
978.21384   981.23270   159.00000  15.78606             12.82567
986.64483   1086.02414  290.00000  27.65972             13.72143
982.66834   1962.77387  199.00000  17.46832             14.52423
987.58125   685.00937   320.00000  28.60144             14.73095
985.74882   861.55450   211.00000  20.03716             13.43742
984.58491   1115.90566  212.00000  19.34491             14.05943
986.53704   1219.61574  216.00000  19.91474             13.94367
986.74208   1996.50226  221.00000  19.55003             14.48071
989.73759   247.70567   282.00000  23.18433             15.61502
996.20209   1103.60627  287.00000  35.30346             11.68857
992.67424   1327.60227  264.00000  24.84989             13.63194
989.11486   1797.02365  296.00000  26.78660             14.31833
990.98120   608.86842   266.00000  21.46966             15.95118
992.06771   232.79167   192.00000  16.15406             15.21606
993.36967   731.98578   211.00000  19.96095             13.67934
994.12551   1159.89069  247.00000  22.02438             14.84678
994.89388   952.09796   245.00000  19.50977             16.02136
999.84436   770.43969   257.00000  20.90293             16.03277
997.94215   836.98347   121.00000  13.96228             11.03137
1006.58889  98.99444    360.00000  24.51047             19.19719
1004.35398  873.48230   226.00000  21.52443             13.84615
1005.94688  992.67667   433.00000  25.78936             22.33607
1006.57949  1817.73333  390.00000  29.16873             17.60501
1007.94702  1238.04305  302.00000  22.46490             17.33184
1010.67111  730.81333   225.00000  18.88316             15.31769
1016.56667  576.17333   300.00000  27.08862             14.28851
1009.94886  2001.15909  176.00000  16.19354             13.86148
1010.33796  829.37500   216.00000  20.71894             13.73222
1006.71875  969.71875   32.00000   6.89202              5.91344
1016.57196  973.71587   271.00000  22.61047             15.43744
1017.85818  1351.11273  275.00000  20.60010             17.24808
1018.41436  1086.23757  181.00000  17.15358             13.55343
1020.09756  1064.65244  164.00000  17.07841             12.23346
1023.88936  1209.07660  235.00000  21.33598             14.18093
1027.02532  251.10549   237.00000  20.45324             15.26945
1023.88362  912.68534   232.00000  19.24915             15.40534
1022.78607  1902.97512  201.00000  18.13707             14.14692
1020.34000  758.44000   50.00000   9.07011              7.03036
1022.66917  853.34586   266.00000  26.93640             12.75912
1024.51744  1231.03488  172.00000  16.68897             13.19841
1034.09202  1145.98160  326.00000  26.52212             16.39226
1040.28617  1301.11576  311.00000  46.28317             8.94619
1032.37195  32.80793    328.00000  25.06880             17.10000
1036.10364  946.46779   357.00000  26.97997             17.25130
1034.03150  930.87008   254.00000  20.56581             16.18805
1034.31628  1090.60000  215.00000  17.02840             16.07349
1034.02643  820.18943   227.00000  19.73690             14.75324
1033.55556  1075.58730  126.00000  14.53530             11.22278
1035.84058  1176.48309  207.00000  18.15185             14.67630
1034.03704  761.75926   54.00000   9.46359              7.25274
1034.16279  731.83721   43.00000   7.78383              7.03191
1038.65839  1012.25466  161.00000  15.89392             12.93966
1041.33333  1119.09020  255.00000  21.38336             15.38871
1042.36301  785.25000   292.00000  26.17694             14.37804
1047.17722  855.19620   316.00000  21.70229             18.87718
1040.43243  971.70270   37.00000   10.75812             4.51633
1047.59735  804.32743   226.00000  19.76781             14.77274
1048.34673  6.20101     199.00000  17.79532             14.28612
1049.33514  998.85946   185.00000  17.67606             13.33784
1049.40415  961.50259   193.00000  16.83585             14.62388
1049.23529  1070.91176  170.00000  16.19662             13.64078
1051.64167  877.70000   120.00000  15.70349             9.95519
1051.16860  1058.90698  172.00000  16.89645             13.03877
1050.39247  2012.81720  186.00000  17.80801             13.35553
1055.44758  231.70161   248.00000  18.39672             17.22607
1059.84821  1148.82589  224.00000  25.84269             11.08804
1052.52778  1157.23611  72.00000   10.64712             8.70255
1059.93603  324.11448   297.00000  20.61391             18.62054
1053.12121  1138.89394  66.00000   11.35604             7.48864
1058.45635  1208.32143  252.00000  28.26401             12.67801
1057.38129  1012.41727  139.00000  14.98848             11.86448
1055.42157  1276.09804  102.00000  13.71054             9.60005
1060.00351  774.50526   285.00000  23.96598             15.40163
1058.93431  1234.54015  137.00000  14.55077             12.15733
1065.94479  1186.86196  326.00000  24.42389             17.70872
1074.20845  120.42535   355.00000  29.62570             15.63783
1071.29921  909.14567   254.00000  21.91559             14.82330
1070.54104  930.41791   268.00000  19.72840             17.48770
1067.72973  1888.71892  185.00000  17.14497             13.83477
1077.63736  1093.94505  273.00000  32.72571             10.83156
1071.34962  872.66165   266.00000  23.13506             14.75579
1072.29167  969.81548   168.00000  17.03688             12.62767
1070.24201  1237.95890  219.00000  20.53107             13.95408
1077.36111  1047.74167  360.00000  24.35750             18.98895
1075.84082  1947.34286  245.00000  20.82995             15.14038
1080.41369  232.31845   336.00000  27.36736             16.03567
1076.23288  1003.72260  292.00000  19.90126             19.03795
1079.26943  1882.84456  193.00000  17.14656             14.53642
1080.66486  219.20541   185.00000  17.80188             13.36451
1080.31765  791.59216   255.00000  24.61679             13.30417
1083.58091  1899.03734  241.00000  21.13947             15.08207
1081.36000  1252.38667  150.00000  15.64193             12.20427
1083.87907  987.97674   215.00000  19.68183             14.42064
1084.49425  1136.00575  174.00000  18.01436             12.37485
1085.95833  92.76250    240.00000  18.92939             16.18686
1083.33166  1974.13568  199.00000  17.75171             14.29089
1087.76415  1230.33491  212.00000  19.94597             13.59252
1088.53182  1916.04545  220.00000  18.53535             15.24201
1092.65801  246.70130   231.00000  18.92448             15.64937
1099.00341  1223.73038  293.00000  24.12488             16.74811
1098.42254  968.30282   142.00000  17.02358             10.75531
1099.08917  983.87261   157.00000  15.79136             12.67040
1105.92715  1035.22185  302.00000  28.89622             13.39777
1103.97039  603.30592   304.00000  26.75505             14.97799
1103.45946  1247.51737  259.00000  23.31769             14.43636
1104.29368  101.34201   269.00000  19.88827             17.36940
1102.98643  1084.26244  221.00000  24.53118             12.23501
1108.43945  1663.98616  289.00000  27.54318             13.51343
1104.37768  8.90558     233.00000  20.17178             14.81258
1107.29528  132.92913   254.00000  20.23497             16.54866
1104.90476  1885.38624  189.00000  16.22844             14.87051
1113.64754  1199.03552  366.00000  26.98665             18.18025
1107.83830  257.46809   235.00000  18.61311             16.29915
1106.68421  1010.79699  133.00000  16.43144             10.37026
1108.26178  240.10995   191.00000  16.61169             14.76225
1109.32677  1767.62205  254.00000  25.44528             12.81026
1108.35673  1973.02339  171.00000  16.72256             13.10846
1115.40187  1346.75234  214.00000  20.70022             13.17640
1118.34276  54.91519    283.00000  25.04001             14.63741
1116.92181  1329.52675  243.00000  23.19452             13.40090
1112.61417  2035.78740  127.00000  16.06998             10.18592
1117.22870  892.46188   223.00000  22.68457             12.65100
1117.97000  1129.91000  200.00000  16.33172             15.69748
1118.12155  1909.99448  181.00000  16.43208             14.08356
1115.51064  977.42553   47.00000   8.99701              6.63850
1119.30729  1874.52083  192.00000  17.40986             14.10540
1125.80272  317.76190   294.00000  21.34043             18.25542
1122.80321  1098.50602  249.00000  24.16388             13.40565
1124.57937  1290.75397  252.00000  33.36937             11.03615
1127.14932  920.93665   221.00000  19.67655             14.50841
1127.43686  1039.74061  293.00000  24.98563             15.22386
1127.35121  752.60054   373.00000  34.23825             14.14473
1128.65934  964.76923   182.00000  18.17617             12.83947
1126.32680  1250.69281  153.00000  17.32625             11.24683
1127.60215  1847.16667  186.00000  15.97716             14.90582
1130.59067  985.77202   193.00000  16.52716             14.87718
1131.16854  1929.92697  178.00000  18.60222             12.27868
1134.38298  893.93191   235.00000  21.21832             14.11413
1132.34451  869.91463   328.00000  30.60452             13.85752
1134.18987  1237.55696  237.00000  20.56329             15.15376
1133.39691  1909.86598  194.00000  16.91008             14.77194
1136.38732  114.49296   284.00000  20.85095             17.41515
1132.81667  1087.57778  180.00000  18.25656             12.57586
1139.26994  1198.52965  489.00000  30.99071             21.47846
1137.59684  1223.22530  253.00000  22.83846             14.20196
1140.57377  1314.54098  244.00000  19.98502             15.90010
1144.81661  1117.83737  289.00000  30.06950             13.03067
1140.46575  2044.27397  73.00000   12.55442             7.54273
1142.84689  16.21531    209.00000  17.84518             15.15636
1144.82812  1982.88672  256.00000  18.81883             17.46385
1147.01980  999.98515   202.00000  21.40385             12.04300
1144.35542  1081.42771  166.00000  16.48063             13.04929
1146.52055  1846.72603  146.00000  16.54577             11.32048
1149.59887  1239.68927  177.00000  20.60439             11.86724
1151.28182  1856.49091  110.00000  12.88478             11.29044
1156.35075  1137.95522  134.00000  23.79919             7.30269
1151.31429  1930.46429  140.00000  16.44909             11.25031
1160.70107  140.36299   281.00000  25.24183             14.29316
1161.89170  1705.81227  277.00000  34.74647             10.89050
1154.61905  1014.57143  21.00000   6.25817              4.15798
1164.07576  56.41212    330.00000  26.71163             16.11909
1160.32174  1183.13478  230.00000  21.44708             14.42423
1161.81579  1929.79825  114.00000  12.82167             11.40129
1166.63287  187.26573   286.00000  19.91624             18.51859
1164.25758  1911.40404  198.00000  19.03419             13.91481
1170.10714  909.53125   224.00000  19.94281             14.35566
1171.72800  994.05200   250.00000  21.68146             15.36904
1167.19162  1202.86826  167.00000  14.83999             14.41346
1168.33511  1253.67553  188.00000  16.82260             14.25556
1170.67337  974.62814   199.00000  18.82043             13.55364
1172.47794  1889.83824  136.00000  18.07813             9.89602
1174.06140  646.34211   228.00000  19.86951             14.66968
1175.07623  957.54260   223.00000  19.47846             14.59533
1178.91353  117.73308   266.00000  21.11825             16.16575
1178.91954  1161.64368  261.00000  26.58044             13.06411
1179.03459  1498.30189  318.00000  26.26627             16.24272
1175.42500  1919.81250  160.00000  16.74827             12.28182
1180.71681  1063.70501  339.00000  27.03176             16.09305
1184.36824  145.30743   296.00000  31.13798             13.74825
1188.94372  1146.52381  231.00000  28.96139             10.63933
1188.30233  1112.30233  258.00000  26.67892             12.73129
1194.91202  1653.42229  341.00000  37.97680             11.99976
1194.57490  1086.79352  247.00000  31.19042             10.16330
1186.85556  1964.09444  180.00000  16.03516             14.50507
1188.59130  1175.10435  115.00000  14.00538             10.55474
1196.33030  1200.64545  330.00000  25.09142             17.15730
1191.43827  1914.48148  162.00000  16.57766             12.45153
1195.63636  1308.85167  209.00000  17.95483             14.88901
1194.57037  2037.94815  135.00000  14.85127             11.60711
1192.85185  1953.34568  81.00000   12.41327             8.41476
1193.05224  1997.40299  134.00000  17.94236             9.50554
1197.48876  950.03371   178.00000  16.36458             13.98235
1200.95402  1219.67433  261.00000  23.93618             14.15983
1199.51087  929.04891   184.00000  17.40489             13.54169
1202.93023  1326.08372  215.00000  21.33017             13.02221
1201.92188  1065.95833  192.00000  16.32598             15.04173
1205.48127  1256.86744  347.00000  22.05780             20.48918
1208.83737  1622.97232  289.00000  26.79781             13.89640
1202.77273  1926.57792  154.00000  18.20293             10.83237
1202.05960  1952.78146  151.00000  16.21135             11.89803
1205.17318  39.29050    179.00000  17.03872             13.57813
1205.55866  1108.25698  179.00000  17.17565             13.34364
1203.73206  1179.70813  209.00000  21.90337             12.22862
1211.19588  108.57732   291.00000  20.10235             18.78977
1209.25616  1901.68966  203.00000  17.50417             15.01587
1216.36970  1817.12121  330.00000  28.04955             15.16737
1212.65608  19.21164    189.00000  16.60304             14.72696
1213.61654  1304.97744  133.00000  20.44478             8.46642
1211.73759  1958.42553  141.00000  18.08206             9.96115
1228.01902  1353.82065  368.00000  42.14392             11.45216
1216.98522  2001.18227  203.00000  19.35849             13.41291
1216.40465  598.29302   215.00000  18.22325             15.19833
1223.15917  1668.86159  289.00000  26.44469             14.09341
1218.22477  1125.00459  218.00000  26.13746             10.81227
1221.05036  1188.68345  278.00000  20.24944             17.66026
1220.94776  1983.35075  134.00000  17.17713             10.69565
1222.31365  164.29520   271.00000  20.26286             17.07196
1220.96648  1836.63687  179.00000  16.66716             13.80267
1231.88509  77.78261    322.00000  23.55777             17.52484
1229.67931  201.02069   290.00000  22.10757             16.79171
1230.84817  2030.86911  191.00000  15.94862             15.29308
1227.50000  999.00000   28.00000   6.70777              5.25141
1233.16719  1272.49527  317.00000  30.72654             14.01577
1236.84956  43.36726    226.00000  19.49870             14.92183
1235.91358  1135.62346  162.00000  14.52007             14.25739
1240.54790  1478.83234  334.00000  29.74563             14.71664
1237.99070  1895.47442  215.00000  18.42825             14.99696
1239.14885  1103.95038  262.00000  23.13815             14.48727
1243.12766  1735.65957  282.00000  24.84616             14.56753
1243.70588  1963.14216  204.00000  16.78123             15.48360
1241.93714  1978.66286  175.00000  15.99858             14.20154
1243.42857  1908.13534  133.00000  14.65569             11.88769
1246.85648  1128.10648  216.00000  20.12422             13.86125
1245.21111  1846.06111  180.00000  18.21218             12.65215
1247.67059  1234.81176  255.00000  22.84825             14.46617
1249.07547  573.25472   212.00000  22.79181             11.96884
1259.73955  678.98071   311.00000  28.10447             14.14825
1265.20377  658.95472   265.00000  33.84393             10.24847
1255.95862  1168.15862  145.00000  16.30463             11.43941
1256.11842  1903.82895  152.00000  15.11161             12.88816
1257.61049  210.55805   267.00000  23.08003             14.76530
1258.79279  1132.24324  222.00000  29.69974             9.62933
1265.78017  587.69397   232.00000  26.81381             11.33150
1263.52222  1003.09444  180.00000  17.11898             13.41107
1262.98673  1267.80531  226.00000  24.53997             12.10624
1260.54321  1231.45679  81.00000   12.44787             8.24042
1262.80488  1990.98780  164.00000  15.70064             13.32155
1265.08696  1913.17391  115.00000  13.60092             10.96443
1268.68182  1969.19318  176.00000  16.46920             13.81052
1266.16129  1870.37097  62.00000   10.03823             8.26007
1269.36364  1922.69421  121.00000  14.85121             10.47445
1280.86975  55.71849    238.00000  21.55049             14.21751
1281.25086  106.07216   291.00000  22.52638             16.68160
1279.88485  1004.72121  165.00000  15.59194             13.55548
1283.83893  205.80201   298.00000  26.31158             14.62831
1281.74342  1857.53947  152.00000  17.41645             11.47582
1284.16292  1873.48315  178.00000  16.64554             13.68105
1288.32907  237.60383   313.00000  24.30236             16.70993
1288.88492  1201.47619  252.00000  19.43377             16.94472
1294.34286  553.70357   280.00000  24.07440             14.98740
1290.28571  615.16667   84.00000   11.39509             9.47284
1293.21845  1890.44660  206.00000  20.19212             13.03219
1301.27719  1980.70175  285.00000  27.88069             13.81280
1304.58242  1653.11722  273.00000  33.28163             10.76441
1303.46800  171.01200   250.00000  21.45698             14.87533
1306.50185  661.66790   271.00000  23.45873             14.76598
1306.25806  2002.95968  248.00000  20.32952             15.77891
1307.97674  1773.00664  301.00000  25.46960             15.22220
1309.57895  1001.66507  209.00000  17.91599             14.92736
1313.63043  1887.58696  276.00000  24.47920             14.68210
1313.57595  183.34177   158.00000  19.85802             10.93140
1316.83904  1960.64726  292.00000  24.12098             15.43854
1316.07563  1911.70588  119.00000  15.01384             10.50329
1337.36389  1625.53056  360.00000  48.85274             9.99717
1324.26449  23.36957    276.00000  21.37045             16.47833
1328.07826  699.30870   230.00000  22.11395             14.18858
1323.66667  65.81046    153.00000  14.61295             13.37852
1323.14151  1907.03774  106.00000  14.23649             9.75153
1330.42049  354.80565   283.00000  27.43262             13.28687
1328.98698  1400.10677  384.00000  27.03501             20.90469
1335.10968  1230.98710  310.00000  26.81667             15.34633
1334.26644  1323.22837  289.00000  24.04932             15.34401
1335.23843  98.58363    281.00000  20.45460             17.66002
1337.43123  271.63569   269.00000  23.33163             14.75881
1337.33333  185.57843   102.00000  14.00279             9.41872
1345.22895  577.40526   380.00000  33.02281             16.36318
1343.48534  165.45928   307.00000  29.40497             13.33977
1345.73295  2003.40909  176.00000  18.67938             12.39825
1345.74317  1913.63934  183.00000  17.83940             13.07468
1344.94828  2019.38793  116.00000  13.22148             11.21500
1347.91946  75.56376    149.00000  14.29175             13.30917
1351.74312  188.18349   218.00000  24.59487             11.85357
1355.40299  717.79851   268.00000  23.86883             14.41552
1357.61463  620.22927   205.00000  20.45046             13.30562
1356.29741  1955.91810  232.00000  19.75187             15.12008
1356.26174  1971.28188  149.00000  14.00601             13.56718
1360.80973  1937.29646  226.00000  21.55537             13.40718
1366.93103  1918.98276  232.00000  26.35256             11.51071
1366.28477  184.84768   151.00000  14.83425             13.09965
1369.17486  1973.93989  183.00000  16.31926             14.37888
1373.02516  176.13208   159.00000  18.52243             11.29040
1376.77947  1318.30798  263.00000  25.86870             13.15242
1371.63736  1853.32418  182.00000  16.43357             14.12653
1375.41786  84.67500    280.00000  25.19792             14.21101
1380.23223  632.23697   211.00000  23.71521             11.42367
1377.24900  1874.19679  249.00000  22.22861             14.33128
1380.48221  164.84980   253.00000  20.44925             15.85930
1386.00000  1923.00000  220.00000  18.11595             15.61216
1385.87037  1937.09877  162.00000  16.50432             12.50273
1383.69118  2029.58824  68.00000   10.42658             8.33071
1384.28205  2043.92308  78.00000   12.11428             8.37455
1391.81915  1830.10993  282.00000  26.91536             13.56502
1387.10968  1991.13548  155.00000  16.29798             12.15834
1393.59127  1869.12698  252.00000  21.59335             14.91360
1390.70861  1974.14570  151.00000  14.61735             13.22847
1395.51064  1957.50532  188.00000  19.18699             12.52171
1399.46707  1992.83234  167.00000  16.03419             13.39030
1405.42366  739.89695   262.00000  25.99016             13.36526
1404.40609  1948.02030  197.00000  19.18081             13.26840
1403.72222  2036.66667  144.00000  16.89070             11.30991
1407.08120  1911.00000  234.00000  21.12625             14.23142
1405.73381  2018.58273  139.00000  15.52736             11.45728
1415.42904  321.99670   303.00000  25.41782             15.27111
1417.40494  1884.25185  405.00000  27.70235             18.68419
1415.83838  2015.27273  99.00000   12.66883             9.97744
1422.34731  1997.46707  167.00000  17.45914             12.22484
1421.26772  232.12598   127.00000  16.58747             9.82957
1422.89441  1919.88199  161.00000  16.51893             12.44379
1425.26794  621.84211   209.00000  19.66306             13.81312
1426.97826  389.54348   184.00000  16.49950             14.31594
1431.15267  748.26718   262.00000  23.77714             14.28937
1429.55417  240.56250   240.00000  22.63927             14.17111
1436.61600  1908.99200  250.00000  22.55892             14.37660
1441.33209  1345.30597  268.00000  25.28054             13.68589
1441.49754  393.66995   203.00000  20.06198             12.98466
1436.28571  2003.57143  56.00000   10.84811             6.61724
1444.05190  1882.85121  289.00000  22.83560             16.21631
1444.34125  1111.29970  337.00000  33.67505             13.03987
1443.94681  2026.09043  188.00000  19.07623             12.62579
1449.05102  1287.59184  196.00000  19.92251             12.59975
1448.62555  1847.47577  227.00000  19.82373             14.73497
1453.60241  1930.98394  249.00000  21.92914             14.64058
1458.17219  1211.02980  302.00000  29.16179             13.23509
1465.88211  761.03659   246.00000  22.93772             13.78786
1464.16379  1867.07328  232.00000  19.65791             15.06365
1468.05172  362.59770   174.00000  20.36545             11.01702
1468.89850  1899.13158  266.00000  19.72891             17.33128
1471.09960  136.73307   251.00000  22.01751             14.98958
1472.59722  792.36806   144.00000  16.48537             11.16654
1478.40000  1786.78636  220.00000  21.00267             13.53908
1486.45732  1264.56707  328.00000  34.28910             13.01257
1480.33099  2001.76056  142.00000  17.16257             10.72651
1485.70248  1303.32231  242.00000  19.17101             16.41725
1487.27442  1918.06512  215.00000  17.54263             15.82835
1493.34951  138.01294   309.00000  27.74860             14.56665
1490.95652  352.19876   161.00000  16.05880             12.82609
1496.66807  785.09664   238.00000  22.00364             14.19593
1499.90000  1957.07143  210.00000  16.98677             15.78331
1501.23121  843.76879   173.00000  16.72925             13.30282
1509.84615  344.88462   364.00000  30.34402             15.53621
1509.62312  832.54271   199.00000  17.50762             15.55103
1517.16601  802.45455   253.00000  21.28258             15.31644
1532.62776  1069.98107  317.00000  20.68052             19.89306
1543.79932  311.65646   294.00000  25.83562             14.72937
1540.87931  1941.08621  174.00000  15.70566             14.24792
1548.48773  327.67485   326.00000  28.06665             14.86933
1549.43537  510.13605   294.00000  26.88198             14.15618
1566.12022  1220.66667  366.00000  38.55231             12.29043
1561.04332  1181.72202  277.00000  20.62105             17.17579
1568.41808  1280.19209  177.00000  21.16600             10.73370
1571.50230  1911.93548  217.00000  17.29014             16.02958
1579.45263  619.76491   285.00000  23.54894             15.55502
1581.85235  1274.90604  149.00000  17.26832             10.98869
1594.36592  1580.36313  358.00000  37.39718             12.88596
1597.17590  587.85301   415.00000  33.36746             16.13402
1601.96108  308.20060   334.00000  34.68674             12.96681
1602.79051  690.43083   253.00000  20.17446             16.07120
1621.12847  582.40625   288.00000  32.65607             11.46050
1616.69858  1198.24823  282.00000  19.90251             18.75647
1616.26961  2021.54902  204.00000  22.14573             11.93990
1624.30159  546.76190   378.00000  35.90585             13.79538
1616.20305  1386.52284  197.00000  17.66680             14.21546
1618.95302  1401.12752  149.00000  15.45843             12.31317
1620.45631  1424.62621  206.00000  18.42508             14.30995
1627.51903  525.13149   289.00000  25.19683             14.71223
1631.28058  701.25180   278.00000  24.66974             15.81209
1628.57915  1867.13127  259.00000  19.66864             16.92033
1630.38614  618.79208   202.00000  17.84260             14.74771
1632.01554  506.60622   193.00000  17.12486             14.53263
1633.55251  1727.85388  219.00000  18.76168             15.25063
1630.34545  606.11818   110.00000  12.97015             10.87978
1633.12155  493.31492   181.00000  16.25412             14.38739
1641.55263  593.70000   190.00000  16.69673             14.55111
1641.33566  610.12587   143.00000  15.26292             12.32461
1648.94671  1352.02508  319.00000  28.61988             14.39111
1643.56250  1939.16667  192.00000  16.09501             15.20780
1650.70312  1186.81641  256.00000  27.07305             12.12592
1651.70707  526.33670   297.00000  28.82548             13.37793
1652.24876  1270.35821  201.00000  16.75593             15.35701
1662.13032  934.45213   376.00000  29.52826             16.31038
1661.27163  342.48789   578.00000  37.08355             20.29678
1662.71967  609.93305   239.00000  23.12495             13.50188
1667.84513  263.65044   226.00000  23.23334             12.70067
1679.62006  590.76900   329.00000  39.51213             11.46234
1677.13993  711.07850   293.00000  30.08537             12.57826
1677.82890  576.95437   263.00000  29.63414             11.46232
1675.62903  495.22177   248.00000  25.45804             12.64640
1681.99686  1034.14780  318.00000  25.86564             16.04092
1678.63415  1849.49756  205.00000  16.61956             15.79348
1681.98755  1810.95436  241.00000  28.95259             11.60136
1688.93464  233.66993   306.00000  22.83325             17.28408
1689.34564  441.17114   298.00000  25.25530             15.12734
1692.96271  952.96949   295.00000  25.58035             14.89518
1690.71321  603.73585   265.00000  25.12306             14.02530
1696.11161  649.35714   224.00000  19.44571             14.69145
1697.04878  1822.35976  164.00000  15.42446             13.59615
1702.08966  1687.89655  290.00000  26.42062             14.06277
1705.24658  628.22260   292.00000  25.90704             14.46363
1700.77473  575.76923   182.00000  16.70567             13.91195
1704.92593  665.99588   243.00000  23.99416             12.98285
1706.33742  1713.28221  163.00000  16.42043             12.79033
1711.90654  1521.24299  214.00000  19.84927             13.88291
1713.43446  507.83146   267.00000  19.25104             17.73815
1714.67816  372.73180   261.00000  23.78027             14.06597
1716.64372  1177.31579  247.00000  25.55519             12.91336
1721.28846  591.45192   312.00000  28.69694             13.99779
1720.02846  1727.50407  246.00000  21.02255             14.98260
1717.66197  2030.78873  142.00000  15.49257             11.72099
1728.19636  692.38909   275.00000  42.54888             9.63746
1720.23711  1255.08247  194.00000  19.50802             12.72533
1725.56738  1216.65957  282.00000  33.88256             11.52375
1724.25112  1204.14798  223.00000  21.60208             13.22620
1737.64257  1705.81928  249.00000  21.35504             14.93863
1744.78979  1420.01201  333.00000  35.76538             12.24899
1739.87190  1169.66529  242.00000  21.62375             14.37323
1744.24710  39.61776    259.00000  21.35564             15.53537
1748.76234  1009.41133  547.00000  27.90349             25.42106
1748.86058  1755.62981  208.00000  19.74421             13.74944
1752.20283  1505.70755  212.00000  20.07613             13.49135
1753.36087  1173.21739  230.00000  20.78254             14.64101
1761.37008  641.75853   381.00000  37.33118             13.30774
1763.82394  1468.54577  284.00000  20.51857             17.78849
1767.52805  950.93729   303.00000  24.38511             15.85153
1765.37759  1769.27386  241.00000  21.74673             14.18129
1768.97153  20.00712    281.00000  19.68730             18.32675
1769.44162  1160.47716  197.00000  21.44885             11.76184
1765.83721  1115.95349  43.00000   7.92404              6.87478
1782.07670  1015.59882  339.00000  32.39026             13.62460
1780.41569  1251.02745  255.00000  24.71098             13.24707
1777.58389  456.70470   149.00000  15.83243             12.06195
1782.00704  1917.66901  142.00000  15.03917             12.28359
1786.75089  987.49110   281.00000  20.24192             17.69462
1791.20608  1115.99324  296.00000  28.11808             13.56032
1791.59643  659.25714   280.00000  25.77914             14.18856
1787.79126  1725.86408  206.00000  20.08461             13.19769
1788.91561  1830.73418  237.00000  20.40789             14.79749
1810.79612  1670.00000  206.00000  33.72283             8.15199
1803.99526  1715.99052  211.00000  20.19123             13.69297
1806.50204  1595.38367  245.00000  19.76251             15.79208
1805.03077  468.80000   65.00000   10.86395             7.63570
1817.24800  448.14800   250.00000  22.36138             14.46466
1822.06897  463.86207   232.00000  25.40707             11.78676
1817.95833  2034.61667  120.00000  17.39735             9.30341
1821.79018  1558.50446  224.00000  18.80567             15.25963
1822.55769  1623.72115  208.00000  21.32128             12.51882
1829.56131  1093.63760  367.00000  32.28888             14.86606
1828.15523  1415.28881  277.00000  26.52456             13.34024
1838.07090  1530.42910  268.00000  22.91387             15.01998
1840.56985  1448.02206  272.00000  24.61762             14.17139
1857.41577  1511.41935  279.00000  25.70501             14.19964
1866.96139  1045.57143  259.00000  21.10338             15.78602
1868.01115  1628.18959  269.00000  21.72857             15.82168
1876.56250  1451.30833  240.00000  25.66223             12.02773
1890.98221  654.03915   281.00000  27.37578             13.39583
1892.68826  440.94332   247.00000  23.04390             14.04345
1903.20168  1096.36975  238.00000  20.44004             14.86539
1901.66346  857.43269   208.00000  19.34087             13.77456
1909.95652  1524.61265  253.00000  30.19379             10.81899
1911.12937  1431.84965  286.00000  24.24396             15.10498
1931.69649  1067.03514  313.00000  22.41646             17.97218
1932.28990  1018.30293  307.00000  20.71765             19.10349
1947.23387  1541.05645  248.00000  21.55531             15.01368
1976.78884  463.16335   251.00000  22.63402             14.14197
1982.20703  390.10547   256.00000  21.77936             15.28220
1993.44156  564.18182   308.00000  26.59729             15.40115
1995.33333  414.30159   189.00000  16.79377             14.47295
2020.10000  794.63750   160.00000  18.01001             11.38319
2028.20089  1365.14286  224.00000  20.17411             14.15087
2031.42282  1433.66443  149.00000  18.23113             10.53903
2041.63636  431.46753   154.00000  16.65260             11.98646