# Filename: Nuclei_416_bidi_60x_020.npz
# Voxel size (nm): (108, 108)
# Area quantity: voxels
# Num nuclei detected: 2082
Y           X           AREA       MAJOR_AXIS_LENGTH    MINOR_AXIS_LENGTH
11.73184    994.15642   179.00000  19.45128             11.79312
24.20243    1297.97571  247.00000  18.52747             17.02876
30.80503    1045.39623  159.00000  16.46203             12.44842
33.08197    1182.26230  122.00000  14.09847             11.15723
44.45729    732.83417   199.00000  17.54372             14.67607
47.63014    711.19863   146.00000  16.60544             11.26095
62.61991    689.22172   221.00000  18.30987             15.48855
66.28169    929.49296   213.00000  19.31923             14.20356
69.64935    1306.51299  154.00000  15.90773             12.38297
75.69608    723.89216   204.00000  20.00031             13.39191
78.14218    913.29384   211.00000  16.79705             16.28835
81.71144    1146.40796  201.00000  18.40340             14.22234
83.67797    1380.60452  177.00000  22.69046             10.62713
82.58889    1351.72778  180.00000  16.85968             13.60210
90.63819    928.35176   199.00000  20.76902             12.23023
90.59735    667.07080   226.00000  21.99589             13.84945
97.55469    1235.75000  128.00000  14.62672             11.28101
99.09290    634.65574   183.00000  15.92577             14.70091
112.27149   919.43439   221.00000  23.81074             11.99395
107.15441   1071.77941  136.00000  13.84228             12.57666
106.97115   1121.87500  104.00000  12.95507             10.47611
112.76243   1339.14917  181.00000  17.28762             13.72463
120.87654   881.63580   324.00000  23.96105             17.25325
119.03226   1257.73118  186.00000  16.43967             14.42388
120.88961   689.21429   154.00000  15.56445             12.63833
124.47899   1010.39496  119.00000  13.47017             11.30559
134.24812   1096.43609  133.00000  14.36887             11.81961
133.93506   164.81169   154.00000  16.81549             11.76973
136.48718   1270.76923  195.00000  18.13965             14.51315
136.58989   646.36517   178.00000  16.09784             14.07967
140.13158   1195.01053  190.00000  21.82830             12.27596
135.82353   692.84314   102.00000  12.14702             11.11566
142.67337   889.52261   199.00000  18.57167             13.69190
146.90964   1228.22892  166.00000  18.28977             11.74158
147.55157   1066.21525  223.00000  19.94916             14.37021
149.86341   1350.84390  205.00000  23.54658             11.49642
148.29891   1080.69022  184.00000  18.69094             13.05628
147.48344   633.41060   151.00000  16.69274             11.66652
153.27953   943.26772   254.00000  22.27459             14.76419
160.70588   626.89412   170.00000  16.06746             13.49999
160.71186   887.03390   118.00000  13.66070             11.02099
160.64706   53.21569    51.00000   9.05146              7.82407
166.83173   774.92788   208.00000  21.78698             12.24834
165.33000   125.96000   100.00000  13.04611             10.43221
171.68664   666.10599   217.00000  21.47508             13.02394
170.50633   1187.44304  237.00000  20.17989             15.63219
170.16908   607.01449   207.00000  19.34081             13.65566
172.26244   1221.50226  221.00000  18.55090             15.20336
171.07921   200.50495   101.00000  11.98673             11.02740
177.89286   833.01071   280.00000  21.21923             16.92045
175.62983   574.37017   181.00000  16.86289             13.65594
176.01235   1160.36420  162.00000  16.05417             12.98017
179.86667   1024.52222  180.00000  17.24056             13.30596
180.80000   1065.16800  250.00000  19.22059             16.69028
182.33333   742.96154   234.00000  18.49322             16.64700
185.44571   1047.53714  175.00000  17.06888             13.15277
185.65359   617.27451   153.00000  16.77132             11.71959
186.95789   556.08947   190.00000  16.46456             14.76852
191.59854   798.04745   274.00000  28.61421             13.24169
191.39091   689.26818   220.00000  20.92198             13.51842
188.41228   1152.43860  114.00000  13.53001             10.82805
195.96178   1001.17197  157.00000  16.49477             12.31587
200.94834   923.86716   271.00000  23.14729             15.40486
199.76506   1027.75904  166.00000  17.12037             12.39982
201.57588   526.72763   257.00000  19.57700             16.91472
201.48663   1225.62567  187.00000  17.41282             13.71611
206.63462   1088.68077  260.00000  20.15528             16.56218
206.11230   505.22995   187.00000  18.67905             12.83679
207.11483   1154.79426  209.00000  21.16622             12.83917
207.93197   1260.13605  294.00000  20.50779             18.35883
209.66319   856.89236   288.00000  28.50396             13.24014
207.79638   947.04525   221.00000  19.90258             14.35952
210.87681   1198.75725  276.00000  21.09375             17.02722
210.51923   1240.23077  208.00000  17.50925             15.20472
215.16014   1139.25979  281.00000  22.25084             16.15695
215.30667   711.84444   225.00000  22.29738             12.92136
213.08621   970.19540   174.00000  16.25774             13.67151
216.48047   1074.01562  256.00000  21.36823             15.58489
218.00412   1379.78601  243.00000  24.86447             12.52965
216.09589   621.86986   146.00000  14.76686             12.68106
218.24038   1335.76923  208.00000  19.52655             13.67812
227.55804   687.23661   224.00000  19.77359             14.48097
228.44762   1267.87143  210.00000  18.25285             14.73742
231.40893   660.63574   291.00000  25.24612             15.44327
232.34413   907.50202   247.00000  21.23210             15.02761
231.65789   1324.83333  228.00000  17.70144             16.45381
235.53360   781.00791   253.00000  22.35344             14.42399
232.25974   1032.48052  154.00000  16.16831             12.22278
234.56221   1153.53456  217.00000  18.71142             14.82541
239.35798   985.19844   257.00000  18.89454             17.33995
240.32967   1277.00549  182.00000  16.97400             13.72217
240.61538   637.60897   156.00000  16.13675             12.43330
245.48136   872.61695   295.00000  27.53046             15.07692
245.15546   937.83193   238.00000  23.21560             13.13775
242.36923   1227.99231  260.00000  18.57496             18.23912
242.64571   1136.26857  175.00000  15.80426             14.13891
242.16092   167.20690   87.00000   13.27210             9.05883
243.86441   1028.87571  177.00000  18.19899             12.49118
246.78140   146.74419   215.00000  18.46696             15.11281
244.83333   744.07407   108.00000  16.34911             8.62534
249.33010   209.38350   206.00000  18.68884             14.18702
248.53052   1075.72770  213.00000  17.32578             15.90364
252.33913   849.98696   230.00000  21.52453             13.74677
250.99099   236.60360   222.00000  28.57311             11.43169
254.23684   1215.25789  190.00000  18.28323             13.42793
253.43750   1823.19643  112.00000  13.57795             10.90686
255.61062   1314.52212  113.00000  15.77364             9.72439
257.92746   961.47150   193.00000  19.19210             12.85718
259.20809   616.45087   173.00000  17.20203             12.87311
260.17188   772.36979   192.00000  20.94958             11.87944
264.66187   673.96043   278.00000  26.54409             13.50417
263.48744   922.03518   199.00000  21.43360             11.91155
262.48148   818.11111   162.00000  16.57027             12.44596
265.71074   986.49587   242.00000  20.87105             14.94405
273.41706   911.73934   211.00000  24.68543             11.41344
274.30159   932.95238   189.00000  22.26532             10.84142
271.49383   1136.17284  81.00000   11.89096             9.06509
274.86466   1274.27444  266.00000  20.21071             16.82325
276.13725   1301.13725  204.00000  18.22192             14.32076
277.79184   959.87347   245.00000  18.80000             16.84195
280.27907   1358.83333  258.00000  20.11241             16.61050
280.82653   177.86735   98.00000   11.43257             11.15945
281.32051   581.77564   156.00000  15.17632             13.13244
283.84328   1314.82836  134.00000  15.49376             11.50360
288.00000   550.78333   240.00000  21.90071             14.03833
291.74494   699.42510   247.00000  25.62714             12.41838
287.52062   1173.23711  194.00000  16.50470             15.24128
289.13907   535.41722   151.00000  15.83787             12.14268
296.46748   685.67480   246.00000  24.49456             13.13960
298.78988   771.39689   257.00000  19.67635             16.77767
301.51101   805.79736   227.00000  24.17874             12.15240
298.98077   994.51282   156.00000  16.85841             11.81441
301.12821   255.08547   117.00000  13.57026             11.00496
304.25287   624.33333   261.00000  21.47942             15.69691
305.16102   1144.11017  236.00000  19.86892             15.18273
304.67176   825.33588   131.00000  15.34861             11.04770
307.92899   1323.28994  169.00000  17.41774             12.41307
310.56250   911.41518   224.00000  17.95381             16.01509
313.37288   566.61864   236.00000  19.45896             15.70870
312.86432   1055.67337  199.00000  17.75136             14.39686
314.64130   590.48188   276.00000  21.38264             16.95587
317.14381   1211.66555  299.00000  21.78568             17.90945
314.71795   374.88462   234.00000  24.97793             11.93364
316.89116   502.84014   294.00000  25.62910             15.42216
318.43367   1372.36735  196.00000  18.16825             13.76225
318.33684   188.20526   190.00000  16.97856             14.32323
321.14935   1243.28571  308.00000  22.08960             18.13219
321.27500   335.65833   240.00000  19.29664             15.87960
324.02128   215.01064   188.00000  18.56306             13.06284
322.74093   652.21244   193.00000  17.85690             13.96660
327.47020   900.77483   302.00000  23.75053             16.32577
326.20175   174.55263   228.00000  18.06253             16.09175
326.29469   365.77778   207.00000  19.00776             13.88023
328.50254   580.05584   197.00000  19.48074             12.91927
331.53333   762.07083   240.00000  24.92162             12.99031
330.13223   614.56198   242.00000  20.05850             15.58956
330.30303   876.13258   264.00000  23.28552             14.47163
330.28090   1227.16292  178.00000  17.53394             12.94403
328.98413   1276.57937  252.00000  22.73542             14.35643
331.11024   727.59055   127.00000  13.77357             11.73639
338.06957   1161.31739  230.00000  27.85739             10.80169
335.00538   952.31183   186.00000  18.46888             12.84356
336.20442   1019.91713  181.00000  16.55262             14.08950
339.97500   645.67000   200.00000  19.57390             13.07785
338.74684   839.13291   158.00000  16.10815             12.49523
337.31034   631.68966   58.00000   9.40882              7.85948
342.60131   808.77778   153.00000  19.64828             9.97500
344.76113   307.18623   247.00000  20.21399             15.59923
340.74194   664.66935   124.00000  13.38582             11.91658
344.51376   882.26147   218.00000  20.78939             13.50732
343.38462   925.51479   169.00000  17.41251             12.47467
342.42857   452.26190   168.00000  18.18379             11.87150
345.77551   603.11565   147.00000  18.47867             10.81923
347.44706   543.74118   255.00000  21.27690             15.54438
344.40936   734.47953   171.00000  17.15002             12.84212
346.72561   1041.68293  164.00000  18.46478             11.40580
345.34247   654.35616   73.00000   10.16888             9.23825
350.09402   1013.72650  117.00000  15.50541             9.60882
352.65289   393.45868   242.00000  20.82365             14.99831
355.20091   630.51142   219.00000  22.56040             12.68756
355.27309   204.27309   249.00000  21.31413             14.91274
360.08304   1382.58478  289.00000  25.12928             14.92599
360.04566   731.51142   219.00000  20.33880             13.77762
363.21888   245.60944   233.00000  21.88237             13.63715
364.07600   1291.98800  250.00000  20.81628             15.37986
367.15726   518.92339   248.00000  29.62159             11.65115
365.76000   759.40571   175.00000  16.24778             13.71288
368.82373   859.02712   295.00000  22.05952             17.19364
368.69672   941.72541   244.00000  22.40742             15.16954
369.61236   1001.93258  178.00000  15.41376             14.88932
378.10284   910.84752   282.00000  24.56372             14.97411
377.80000   428.33953   215.00000  19.43295             14.10151
379.95203   550.11439   271.00000  22.58174             15.67343
381.65766   1032.09730  555.00000  30.40567             23.76518
379.72951   287.35246   122.00000  17.28050             9.43641
381.65022   809.62780   223.00000  21.10187             13.53318
382.78283   1380.79798  198.00000  16.69018             15.11271
385.24000   410.59636   275.00000  22.62953             15.59246
385.41753   995.92784   194.00000  17.88588             14.03185
386.68824   788.09412   170.00000  18.40332             11.82011
385.04167   1812.09722  72.00000   11.18145             8.36105
391.06545   1188.18909  275.00000  21.01686             16.96564
387.59043   129.81383   188.00000  20.27915             11.80634
388.69182   155.73585   159.00000  14.54409             14.06802
391.06818   891.88636   176.00000  16.94410             13.35795
395.68000   451.85714   175.00000  18.10260             12.33901
394.95489   556.47368   133.00000  13.62771             12.42426
394.19512   1055.09756  82.00000   11.35961             9.29478
397.39873   495.72152   158.00000  15.94434             12.61377
404.66667   619.52661   357.00000  28.87950             15.97075
402.70370   293.04630   216.00000  19.15462             14.54350
400.04255   751.88511   235.00000  22.07373             13.61100
403.09770   1318.23851  348.00000  24.27760             18.49808
405.55497   196.18848   382.00000  28.79826             17.15990
401.10396   588.63366   202.00000  18.09440             14.49395
404.58333   266.58333   228.00000  19.44891             15.17761
403.76285   1343.58103  253.00000  19.32136             16.72340
400.91463   141.91463   82.00000   11.61618             9.04472
408.10465   1071.84302  172.00000  21.40852             10.57371
413.35193   734.39485   233.00000  31.84418             9.75470
406.37200   778.81600   250.00000  20.00070             16.13445
408.98873   835.90141   355.00000  26.70416             17.60067
413.07463   636.18408   201.00000  21.22154             12.13686
416.46037   811.42988   328.00000  24.97815             17.20714
415.06763   881.19324   207.00000  18.15196             14.54893
419.64906   855.00000   265.00000  21.40160             15.97785
418.05147   785.51471   136.00000  14.17816             12.41412
420.88021   572.54688   192.00000  17.96892             13.79988
422.66968   401.42534   221.00000  19.02974             15.34159
422.73856   588.17647   153.00000  15.45957             12.85559
426.98693   542.67320   153.00000  14.97095             13.13737
430.87634   972.44086   186.00000  20.39539             11.70363
432.28696   1358.99565  230.00000  19.90896             14.79432
430.70629   983.65035   143.00000  15.10505             12.31285
433.78355   616.53680   231.00000  18.05772             16.41627
435.24091   564.54091   220.00000  19.15352             15.13232
437.57477   799.89252   214.00000  19.13738             14.27731
441.66897   489.63448   290.00000  20.36022             18.32724
443.06429   522.32857   280.00000  25.39781             14.16688
446.53558   830.91760   267.00000  26.92825             12.72934
452.81421   399.40437   183.00000  18.84792             12.49842
459.04016   737.02811   249.00000  25.42213             12.72659
456.23188   127.10145   138.00000  13.72023             12.94604
456.24060   899.24060   133.00000  14.37222             11.83123
459.47953   140.19883   171.00000  17.64903             12.58565
461.60494   751.66049   162.00000  18.76012             11.10058
459.57595   494.74684   158.00000  16.46847             12.40767
465.14800   765.13200   250.00000  22.24782             14.55546
462.56180   13.07865    178.00000  15.49368             14.65135
461.84375   109.58594   128.00000  13.51241             12.13078
461.68182   172.83766   154.00000  15.46113             12.81853
461.42857   1851.74107  112.00000  12.35012             11.54643
471.23952   1045.73054  334.00000  31.93142             13.59485
465.53205   1067.54487  156.00000  16.31537             12.17042
467.28729   462.21547   181.00000  17.75438             13.07439
468.67041   1260.54307  267.00000  20.53952             16.76320
470.12214   897.01145   262.00000  19.40073             17.32615
471.01456   403.32524   206.00000  23.29549             11.47444
475.25510   557.93878   196.00000  16.83312             14.85007
478.01111   786.79444   180.00000  18.95088             12.16587
480.10132   521.94714   227.00000  24.01133             13.41264
479.96341   408.49390   164.00000  19.11643             11.16193
486.37766   796.06915   188.00000  17.99787             13.39478
484.77600   974.65600   125.00000  14.86512             10.73071
489.97794   585.79412   272.00000  23.35712             15.03311
490.87619   562.37619   210.00000  19.39876             13.96859
490.72775   1017.12042  191.00000  17.92326             14.01640
493.09524   859.21825   252.00000  22.34562             14.51067
491.42763   1034.92763  152.00000  14.22434             13.61600
493.41007   740.74820   139.00000  16.07522             11.16444
493.84848   957.31602   231.00000  21.65225             13.68296
494.28448   534.57759   232.00000  24.58765             12.33950
497.63450   993.35380   342.00000  26.88090             16.76015
497.19251   31.87166    187.00000  16.65283             14.35039
498.20000   832.42857   175.00000  16.34685             13.69761
502.01504   1135.23684  266.00000  24.37927             13.98811
500.78157   935.47782   293.00000  19.76333             19.30741
502.69643   213.13839   224.00000  19.26502             14.93819
500.95135   360.01081   185.00000  15.78096             14.90592
504.57143   497.45089   224.00000  23.11262             12.72121
503.91000   461.60000   200.00000  18.71744             13.73200
507.08795   757.39088   307.00000  28.76272             14.58930
500.83013   885.16987   312.00000  29.14698             13.86720
505.46130   650.77090   323.00000  22.26910             18.97180
504.52609   1236.37826  230.00000  18.79849             15.68728
511.45098   815.99216   255.00000  34.40183             10.28935
505.28796   711.14136   191.00000  17.89226             13.99105
505.50476   738.05714   105.00000  12.74172             10.67956
509.20398   697.38308   201.00000  17.29690             14.81066
514.00000   344.85944   249.00000  19.56616             16.53758
513.51163   599.82558   172.00000  16.95119             12.93565
514.38424   412.57635   203.00000  16.98184             15.32244
513.16923   803.15385   130.00000  15.13002             11.07872
517.77273   77.80909    220.00000  19.19162             14.80109
521.08456   319.15809   272.00000  21.68946             16.00717
516.80625   738.35000   160.00000  18.12395             11.42199
523.99615   577.82308   260.00000  18.99225             17.58914
525.47682   105.00662   151.00000  17.03703             11.39457
526.52121   726.90909   165.00000  15.83582             13.78172
527.07451   649.18824   255.00000  22.18102             14.66454
526.92021   971.85638   188.00000  15.74760             15.27362
528.20561   170.72897   214.00000  22.74127             12.13059
532.42647   894.98162   272.00000  24.60891             14.25041
534.25091   780.64000   275.00000  25.75350             13.75010
533.18129   511.16374   342.00000  24.43509             18.04367
533.49770   597.89862   217.00000  17.05144             16.38410
536.01408   829.45070   284.00000  21.51211             17.31249
534.62745   1584.20588  204.00000  17.15387             15.22455
538.88115   244.36475   244.00000  19.66283             15.86011
537.11348   439.52482   141.00000  15.29582             11.79281
543.01108   867.47922   361.00000  29.14756             18.32836
541.26531   817.48299   147.00000  15.46270             12.14280
542.06642   963.17343   271.00000  23.54366             15.23858
540.12500   948.03571   112.00000  13.21247             10.94220
545.27442   449.78605   215.00000  17.97768             15.54710
550.96667   701.47143   210.00000  22.71482             12.00978
547.91954   1631.61303  261.00000  20.08080             16.79883
547.23602   465.81366   161.00000  15.82880             12.99889
551.29834   410.83425   181.00000  21.36713             10.85167
551.25943   530.31604   212.00000  25.40769             11.08802
556.71200   901.30800   250.00000  27.46748             11.68676
552.37395   998.26471   238.00000  18.77036             16.97292
552.74208   1236.26697  221.00000  20.26634             14.21340
552.59864   186.98639   147.00000  15.22723             12.33104
557.52063   434.22222   315.00000  27.30279             15.02957
562.00405   774.08907   247.00000  29.29167             11.58983
557.10044   231.98253   229.00000  21.14556             13.84380
556.47120   213.83246   191.00000  17.98499             13.62144
556.45024   499.97156   211.00000  18.06304             15.15125
561.25524   258.76224   286.00000  21.63890             16.97447
560.55072   575.04831   207.00000  20.35064             12.98289
567.48011   292.27321   377.00000  30.08506             16.05599
560.70886   941.90506   158.00000  18.64655             11.04517
561.77848   559.02532   158.00000  15.92602             12.69892
557.40741   719.51852   27.00000   6.72068              5.05021
567.59144   525.19455   257.00000  23.81549             13.78000
566.22660   1767.42857  203.00000  18.53783             14.36256
569.45139   81.31944    144.00000  14.21168             12.91519
573.78317   539.85113   309.00000  21.42060             18.53709
569.94444   737.80000   180.00000  16.08004             14.30263
571.54598   188.17816   174.00000  15.24132             14.68871
573.63830   146.64894   94.00000   11.81819             10.27749
574.84878   697.25854   205.00000  16.94710             16.03363
584.72205   1123.70091  331.00000  36.70236             11.64728
577.46729   69.47664    214.00000  23.67490             11.76706
576.20952   415.58095   105.00000  13.42225             10.07911
580.51293   791.06466   232.00000  21.38192             14.44797
579.71660   1043.44534  247.00000  18.89731             17.07390
580.37113   460.37629   194.00000  18.11555             13.68183
579.53672   710.63277   177.00000  15.52528             14.59571
581.94444   970.28241   216.00000  20.24677             13.85915
584.63404   1001.50213  235.00000  21.20154             14.83220
581.75625   380.01875   160.00000  15.23869             13.41738
583.55230   952.71548   239.00000  20.38696             15.24430
586.36686   683.49112   169.00000  16.95997             12.72109
592.12000   1102.66133  375.00000  26.76713             17.88749
589.22568   726.33852   257.00000  21.51425             15.40069
588.10577   1844.61058  208.00000  17.80832             14.92638
592.59245   304.46038   265.00000  25.96853             13.30662
591.13260   1826.19890  181.00000  18.95294             12.66326
594.54202   913.96639   238.00000  23.85156             12.80354
592.97992   1237.80321  249.00000  22.26430             14.34837
592.10651   141.39053   169.00000  15.38629             14.16642
593.94762   390.51429   210.00000  20.00295             13.48674
594.75234   541.69159   214.00000  20.40728             13.53266
596.74026   899.43290   231.00000  21.00407             14.18669
594.24667   97.34667    150.00000  14.62367             13.10059
596.94581   47.97044    203.00000  17.53507             14.81603
596.05505   1061.69725  218.00000  19.16838             14.50636
599.75277   994.97048   271.00000  25.66485             14.27145
597.26761   745.90141   71.00000   11.47205             7.94652
606.10949   242.85036   274.00000  24.11336             14.60363
603.52016   289.22177   248.00000  19.02104             16.67295
601.41429   756.50000   140.00000  14.31882             12.59012
600.70130   155.14286   77.00000   11.08282             8.84433
603.35625   453.58750   160.00000  15.27390             13.39608
603.62085   818.08057   211.00000  19.20228             14.03234
606.11932   176.75000   176.00000  16.06987             14.13200
607.77551   768.43367   196.00000  19.51229             13.10032
610.43094   373.96133   181.00000  16.64950             13.92395
608.18974   726.29231   195.00000  19.06657             13.11956
608.66412   441.56489   131.00000  13.99839             11.99002
607.99275   647.46377   138.00000  16.72047             10.61574
611.45181   843.06024   166.00000  15.59655             13.90768
612.01361   121.48980   147.00000  15.56861             12.07607
613.26400   962.22400   125.00000  16.40429             9.88682
615.95868   421.50826   242.00000  22.05776             14.21228
617.01370   472.71918   146.00000  19.39831             9.63881
614.43165   633.99281   139.00000  14.44312             12.37704
620.86989   1071.06320  269.00000  20.39544             17.52035
617.56364   645.72727   110.00000  13.75741             10.33030
623.09360   490.41872   203.00000  19.37293             13.49587
621.98148   480.43519   108.00000  15.92936             8.67293
623.36478   676.87421   159.00000  15.96531             12.88301
621.20339   837.23729   118.00000  14.86408             10.36968
629.65919   1134.63677  223.00000  29.60356             9.91174
625.12308   16.93846    130.00000  14.85025             11.26865
625.14097   577.35242   227.00000  19.51224             15.12525
626.24528   985.28302   318.00000  23.02359             18.00621
623.76027   1316.07534  146.00000  14.77616             12.75469
625.96000   1034.12500  200.00000  18.53505             13.86565
627.42365   1234.78325  203.00000  18.09883             14.34278
626.63121   629.32624   141.00000  14.71104             12.22327
626.23904   715.29084   251.00000  26.53865             12.12082
625.43396   964.45283   106.00000  13.01403             10.45572
630.34112   220.79907   214.00000  17.92907             15.39279
632.06726   1085.38565  223.00000  21.96009             13.12110
629.08091   1107.38188  309.00000  26.25608             16.78993
632.18981   320.53704   216.00000  21.10033             13.04806
631.40217   425.52717   184.00000  16.13780             14.75945
630.67692   589.87692   130.00000  16.28996             10.49183
632.30180   1373.29730  222.00000  19.76493             14.30895
633.58454   650.78261   207.00000  21.14706             12.53820
634.39766   1326.30994  171.00000  16.17252             13.53605
637.34483   237.63547   203.00000  19.37465             13.39448
636.59231   598.53077   130.00000  14.55875             11.97750
640.79528   467.31890   254.00000  22.39943             14.64217
642.75352   835.87324   284.00000  23.69468             15.89164
641.21390   377.77540   187.00000  18.54424             12.96581
642.75379   968.57955   264.00000  23.23654             14.80453
642.65775   1340.29412  187.00000  16.59506             14.40210
645.53361   408.27731   238.00000  21.92441             13.87294
643.63448   643.19310   145.00000  14.63637             12.70492
644.64664   920.00000   283.00000  31.40471             11.74106
645.60544   996.53741   147.00000  14.18334             13.27649
648.80606   706.27879   165.00000  16.53333             13.66629
653.48162   246.99632   272.00000  25.47021             13.65643
652.42800   633.52000   250.00000  24.14187             13.31678
647.08333   986.03571   84.00000   11.54218             9.52085
650.06522   1048.90435  230.00000  19.19218             15.69942
650.03483   851.78109   201.00000  20.60700             12.49869
649.37126   1373.19760  167.00000  15.36430             13.89634
652.72816   311.23301   206.00000  18.72995             14.18025
653.58376   1307.44670  197.00000  18.77039             13.93392
653.96721   1296.60656  122.00000  15.64187             10.07115
656.21645   327.64935   231.00000  18.18832             16.45170
657.03067   698.63804   163.00000  22.35139             9.52863
665.64561   203.32632   285.00000  26.77235             15.23541
656.83333   444.44118   102.00000  12.19219             10.65445
662.93916   168.17871   263.00000  19.98161             16.82423
659.23899   832.12579   159.00000  17.17179             11.88680
670.81749   644.22814   263.00000  34.79037             10.87529
660.77936   727.18149   281.00000  26.97414             14.07154
664.18667   947.12667   300.00000  23.01991             16.98753
662.98969   285.37113   97.00000   12.42408             9.96352
664.32338   772.62687   201.00000  17.36751             14.90203
666.77778   861.78704   216.00000  19.91368             14.23102
668.84322   1122.16525  236.00000  21.30089             14.14997
663.55556   427.83333   36.00000   7.14905              6.42543
666.90000   512.67692   130.00000  14.73913             11.54544
667.35185   754.62346   162.00000  16.32442             12.68342
670.85753   821.46774   372.00000  38.59365             12.99775
669.85714   1265.88435  147.00000  14.27121             13.12147
674.33987   66.27778    306.00000  21.95007             18.14323
674.44681   1015.34043  188.00000  17.81164             13.99982
675.88158   264.27632   228.00000  18.56791             15.69995
676.08466   872.07407   189.00000  19.77779             12.77238
682.04444   519.70476   315.00000  25.69343             15.77326
681.84783   1080.89752  322.00000  32.08950             13.42237
684.57563   371.13025   238.00000  27.13898             11.65125
678.87500   388.31731   104.00000  12.92055             10.47186
680.77817   403.65845   284.00000  24.08048             15.10566
681.93785   1028.64972  177.00000  16.66930             13.60860
681.71299   1161.38066  331.00000  27.66990             15.53235
682.89474   1411.76316  190.00000  17.03791             14.31978
684.60515   87.53219    233.00000  17.92859             16.66184
685.30556   447.26984   252.00000  25.19196             13.18880
682.65468   472.20863   139.00000  13.89937             12.83886
684.70683   1139.63052  249.00000  22.43656             14.52533
684.68354   1257.43671  158.00000  19.04624             10.61548
685.97166   923.88664   247.00000  22.30785             14.17372
685.28889   971.62778   180.00000  18.07806             12.77621
690.06880   1060.52334  407.00000  29.36578             18.22340
683.21970   1093.18182  132.00000  15.15786             11.15586
686.83088   650.33824   136.00000  15.80517             10.98781
687.80233   684.41860   172.00000  16.30654             13.44993
689.71429   772.80184   217.00000  20.16761             14.03210
690.08021   1248.37968  187.00000  20.45561             12.20647
690.12143   205.31429   280.00000  21.09877             16.93339
691.70635   758.17857   252.00000  19.04977             17.25561
691.47423   953.79381   194.00000  18.04052             13.77856
692.88800   660.51600   250.00000  22.19692             14.81797
692.21154   1185.23462  260.00000  19.40905             17.26980
690.31579   139.86842   114.00000  12.90370             11.25966
694.24809   341.93511   262.00000  21.77458             15.38682
695.87273   437.26818   220.00000  18.55058             15.29803
699.19231   968.36325   234.00000  24.68785             12.67794
697.97518   1425.86879  282.00000  23.37844             16.60898
696.66901   837.85211   142.00000  15.75046             11.72288
698.83537   423.19512   164.00000  16.83333             12.42288
702.39883   815.93548   341.00000  28.17230             16.40408
699.52153   999.53110   209.00000  25.86655             11.03406
702.03861   1281.01158  259.00000  25.42549             14.24350
701.09551   1217.24719  178.00000  17.25694             13.43968
700.59804   931.46078   204.00000  28.45501             10.48700
701.88750   910.16875   160.00000  20.00632             10.49709
709.93208   354.68302   265.00000  26.16917             12.92236
706.31148   898.93989   183.00000  17.36330             13.52224
703.87097   1351.30645  186.00000  18.71496             12.77357
708.85657   233.96414   251.00000  23.68161             13.72623
708.64898   575.90612   245.00000  20.76367             15.11204
710.82129   1375.84791  263.00000  21.06164             16.11926
706.72619   211.88095   84.00000   12.74456             8.42657
713.59366   1098.51297  347.00000  31.27144             14.73083
715.58611   663.78056   360.00000  27.92550             16.75011
715.61257   267.19895   191.00000  17.64199             13.80293
717.61714   451.81143   175.00000  18.94518             11.92909
716.77119   493.60169   236.00000  22.29883             13.87583
717.40584   1395.34091  308.00000  25.46565             15.81363
714.47239   1429.58896  163.00000  14.78545             14.03589
713.86429   463.65714   140.00000  15.62393             11.47433
714.98958   188.20833   96.00000   11.72814             10.48433
714.56835   1006.69784  139.00000  18.02882             10.05103
717.61538   119.97436   156.00000  15.20554             13.22212
716.72470   760.38462   247.00000  24.28797             13.06496
719.26484   684.40183   219.00000  22.35116             12.76798
718.22764   1020.93496  123.00000  13.65852             11.61419
722.78155   1366.50000  206.00000  22.82135             11.58235
718.13846   975.67692   130.00000  18.11261             9.59741
721.77941   1046.30147  136.00000  17.32469             10.15637
721.49383   1256.19342  243.00000  21.02255             15.33724
721.94536   481.39891   183.00000  19.99283             11.79650
723.73684   508.83806   247.00000  19.78747             16.17907
725.13200   925.68400   250.00000  21.95868             14.56474
726.74086   1182.52492  301.00000  21.06330             19.71821
726.25000   1241.69898  196.00000  17.38501             14.51126
729.17964   639.82635   167.00000  20.34282             10.79907
728.27461   14.80829    193.00000  17.60429             14.07618
729.07692   79.60769    130.00000  13.61365             12.24571
730.89583   322.09583   240.00000  19.48832             15.75705
730.85000   878.93929   280.00000  23.38102             15.72424
732.50575   28.82759    174.00000  16.65782             13.48203
731.19892   584.37634   186.00000  19.59710             12.39755
730.29834   857.35359   181.00000  17.37058             13.86233
731.38542   905.47396   192.00000  18.26090             13.53953
734.58547   1069.35897  234.00000  22.19040             13.55982
734.65625   983.82812   192.00000  19.74948             12.64297
734.50562   369.96629   178.00000  16.42560             13.93005
735.15569   1354.42515  167.00000  17.70402             12.34753
733.68750   1316.04167  96.00000   11.43426             10.80127
736.22751   198.41270   189.00000  19.06438             12.67507
736.58730   412.84127   126.00000  15.54600             10.58390
739.14403   1115.46914  243.00000  21.41614             14.74214
737.52727   684.48182   110.00000  16.56426             8.44711
737.20144   1101.74820  139.00000  14.42435             12.56241
738.50000   179.80769   130.00000  15.35157             10.88042
738.32353   424.27451   102.00000  12.55131             10.40625
743.38722   602.22180   266.00000  21.87159             15.77319
738.67200   1036.56000  125.00000  14.05347             11.73239
740.29747   1020.31013  158.00000  15.97186             12.73570
746.94815   953.24444   270.00000  24.91410             14.29970
744.63776   580.96429   196.00000  18.73944             13.72690
742.05479   822.70548   146.00000  17.14767             10.98323
741.12195   1007.40650  123.00000  15.90969             9.89703
745.24737   1365.06842  190.00000  25.12567             10.23843
743.48352   1319.19780  91.00000   12.35035             9.90189
745.11823   1399.56650  203.00000  19.91943             13.02010
741.29231   832.00000   65.00000   9.66193              8.79440
741.95327   1328.34579  107.00000  13.89264             9.93623
746.75224   395.81493   335.00000  27.44964             15.85745
752.78431   937.12092   306.00000  33.36723             12.24808
745.62385   854.11009   109.00000  12.55372             11.02880
750.40000   1163.56667  210.00000  20.47356             13.12331
750.16667   120.33007   306.00000  25.29183             15.42148
747.69178   1094.79452  146.00000  15.90419             11.83845
752.43182   979.36818   220.00000  23.89842             11.91502
754.47577   350.38767   227.00000  20.18879             14.46822
754.79437   711.40282   355.00000  22.29883             20.50069
751.01299   200.16883   77.00000   10.98701             9.17200
757.23963   412.47465   217.00000  20.09957             13.89492
756.33000   1321.21667  300.00000  26.80045             15.28362
757.88571   804.37959   245.00000  21.66115             15.15696
755.13218   863.48851   174.00000  16.44550             13.54854
752.43836   1042.24658  73.00000   10.41339             8.91706
757.22024   787.81548   168.00000  16.75235             13.40007
756.91558   841.07792   154.00000  14.65554             13.42866
757.16304   916.79348   184.00000  16.83005             14.43390
760.92271   460.92754   207.00000  27.42784             10.91017
754.61404   1022.87719  57.00000   9.65732              7.51880
763.32982   769.02105   285.00000  22.46871             16.27199
760.75897   1263.60513  195.00000  16.62442             15.06496
763.74227   561.78007   291.00000  21.90259             17.36865
766.59058   746.61594   276.00000  25.64640             14.41024
762.33533   1086.49701  167.00000  17.70452             12.09675
765.43458   1405.14486  214.00000  19.74421             14.01486
764.59535   603.20465   215.00000  17.49214             15.74034
767.27855   636.35933   359.00000  24.06002             19.39712
767.71564   1137.03318  211.00000  22.33077             12.53344
765.16092   830.10920   174.00000  15.54961             14.32929
771.31773   471.35786   299.00000  28.18079             13.67119
770.91473   488.04651   258.00000  24.24769             13.73699
764.68800   1205.62400  125.00000  13.03283             12.43052
769.76056   194.24883   213.00000  21.86740             12.65739
765.57360   1006.01523  197.00000  26.08712             9.97872
766.07692   277.06410   78.00000   11.33636             8.87193
766.99474   966.53158   190.00000  17.73431             13.77580
774.73810   577.20408   294.00000  30.21794             13.40511
770.91538   658.27692   260.00000  19.72507             17.11800
770.46746   1452.74556  169.00000  17.33975             12.65036
770.49721   545.01676   179.00000  18.22353             12.67863
773.84259   1173.00000  216.00000  20.42703             13.77489
771.97872   1220.34043  282.00000  26.09839             14.07245
770.96503   36.84615    143.00000  15.17467             12.07620
778.25090   907.61290   279.00000  28.00106             13.66595
772.49372   945.73222   239.00000  19.57085             15.71987
773.22989   839.96552   174.00000  18.19295             12.31447
774.38830   523.02660   188.00000  16.60426             14.49880
776.99219   867.34766   256.00000  25.41499             12.95014
774.24242   1036.59848  132.00000  15.71523             11.01223
773.76995   1078.99061  213.00000  24.71250             11.57514
775.94253   48.59195    174.00000  17.72937             12.63132
772.90943   695.82642   265.00000  29.30286             11.70796
775.71674   1283.81116  233.00000  23.06480             12.93886
777.24885   1369.66820  217.00000  20.52565             13.52999
775.93023   924.22093   172.00000  16.88240             13.02181
778.15942   1006.46860  207.00000  17.93555             14.75730
779.31416   1119.73451  226.00000  18.36232             15.77759
784.38000   365.50400   250.00000  28.55400             11.54290
776.64045   751.24719   89.00000   12.24882             9.33274
780.09434   1269.70440  159.00000  17.80974             11.87206
789.31852   285.92099   405.00000  29.67725             17.82403
783.29341   173.68862   167.00000  16.59110             12.84213
784.17699   187.49558   113.00000  14.45667             10.12963
786.43621   244.97531   243.00000  19.47926             15.93990
783.03077   355.49231   130.00000  13.35668             12.54585
781.55435   546.60870   92.00000   11.29916             10.40513
781.85507   880.04348   69.00000   11.70750             7.52696
785.11050   1414.06630  181.00000  18.16493             12.78213
789.06969   320.88502   287.00000  24.50859             15.17613
787.06757   789.04955   222.00000  20.85250             14.09164
785.58547   970.19658   234.00000  21.36870             14.04671
789.03493   1035.10044  229.00000  24.66796             11.91275
787.67234   498.85532   235.00000  18.59139             16.16566
792.54375   653.30625   320.00000  25.02793             18.44916
794.67722   1402.29747  316.00000  28.26928             14.73453
788.80769   344.80000   130.00000  13.94591             11.92167
794.52381   625.38095   273.00000  25.91623             14.92827
789.63128   1303.70391  179.00000  19.14153             12.09235
794.63989   201.89474   361.00000  26.19695             17.63776
795.74841   268.21019   314.00000  26.73349             15.72318
793.50645   392.74839   310.00000  25.17466             18.39031
787.64368   1260.60920  87.00000   11.78882             9.61783
789.77451   1099.80882  204.00000  19.62137             13.45566
800.10922   881.13652   293.00000  33.99035             11.30841
792.26036   1284.16568  169.00000  16.82071             13.10275
793.89960   809.23695   249.00000  22.39979             14.38209
798.95676   995.70270   185.00000  22.48693             11.43380
797.15470   1043.37569  181.00000  18.49487             12.54584
796.54494   1460.53933  178.00000  17.35446             13.16368
797.28358   88.99005    201.00000  17.00285             15.08592
793.98058   1352.90291  103.00000  12.34413             10.76535
798.85648   439.60648   216.00000  20.18503             14.21455
801.04361   557.32087   321.00000  23.87665             17.50524
797.50314   758.86792   159.00000  14.97359             13.62168
798.57787   1009.47951  244.00000  22.97542             13.77192
798.46400   1089.70000  250.00000  23.57694             13.56979
797.72794   1069.91176  136.00000  14.39926             12.17275
799.89048   426.78571   210.00000  17.27494             15.69478
797.09346   1121.63551  107.00000  13.45725             10.36717
800.42442   1268.54070  172.00000  16.36400             13.40632
803.05333   1360.70333  300.00000  24.06078             15.95489
804.58233   535.27309   249.00000  22.28409             14.40204
800.00606   963.79394   165.00000  16.87403             12.54009
801.82963   1321.52593  135.00000  16.40596             10.98276
803.29439   50.31776    214.00000  16.85476             16.20254
803.77901   731.88950   181.00000  16.65882             14.02617
807.15827   354.33453   278.00000  22.61457             15.66377
811.12418   178.41830   153.00000  22.53271             9.19659
809.05195   717.01948   154.00000  16.70153             11.84189
808.72549   1068.52451  204.00000  21.94937             12.31251
812.08176   1318.25157  159.00000  19.30989             10.92668
809.82993   1331.49660  147.00000  15.40108             12.22146
814.09053   481.07407   243.00000  23.01525             13.55817
812.32955   688.35795   176.00000  21.46358             10.72718
809.83721   1163.45930  172.00000  18.14931             12.19659
813.33766   241.48052   231.00000  18.00072             16.35790
814.10160   409.18182   187.00000  19.53054             12.47469
812.00000   837.21649   194.00000  18.18607             13.79906
819.13793   1160.34052  232.00000  40.66349             8.55670
812.64122   420.70992   131.00000  13.58611             12.36516
818.76030   1208.54307  267.00000  23.33189             14.92376
819.53586   466.98734   237.00000  26.10886             11.81185
819.45122   868.92276   246.00000  21.46340             14.90464
814.45324   984.68345   139.00000  14.76580             11.99708
818.38246   1130.44912  285.00000  27.63500             15.09091
816.37500   826.79545   88.00000   12.83971             8.80313
818.88263   447.78404   213.00000  16.66698             16.41728
820.17972   605.85253   217.00000  22.16497             12.53848
817.11798   957.30899   178.00000  18.46414             12.83864
818.65169   782.26966   178.00000  16.94168             13.56253
821.93023   924.30698   215.00000  20.35819             13.52054
818.50000   61.40698    86.00000   11.73094             9.68889
829.57204   266.10108   465.00000  33.44294             18.37034
822.40909   694.31818   154.00000  17.17223             11.61443
820.47321   703.40179   112.00000  14.75415             9.87814
821.89091   191.80606   165.00000  15.81525             13.36643
821.46000   1355.78000  150.00000  17.37621             11.01941
826.66288   539.31061   264.00000  25.57731             13.28303
826.32870   621.84259   216.00000  20.91479             13.31394
826.54274   1001.29060  234.00000  20.67235             14.70944
827.80258   495.71674   233.00000  21.43272             13.85832
826.00578   771.85549   173.00000  15.92375             14.18849
826.88304   360.73099   171.00000  16.64789             13.18948
822.72059   758.57353   68.00000   11.26499             7.71551
829.62812   947.89062   320.00000  22.80847             17.99360
825.06849   1113.48630  146.00000  16.89514             11.11384
832.04412   1457.51838  272.00000  24.39196             14.63463
833.02283   112.74886   219.00000  18.42434             15.19857
835.92667   1390.18333  300.00000  28.36616             13.65151
837.69416   882.42955   291.00000  28.39847             13.11301
840.04310   202.26437   348.00000  24.33761             18.63761
833.50000   1179.76190  126.00000  15.51245             10.40969
836.68780   1191.20488  205.00000  20.93319             12.87235
832.92969   1229.86719  128.00000  15.37479             10.73567
836.42308   817.46154   182.00000  16.17976             14.36679
832.87097   409.32258   31.00000   7.51611              5.31851
839.10160   741.28342   187.00000  19.65923             12.24352
840.76027   970.92466   292.00000  28.82253             13.28422
839.27413   1030.89575  259.00000  23.25961             14.29989
836.59804   1081.94118  204.00000  23.04441             11.28425
835.08850   1111.46903  113.00000  12.65781             11.39912
839.54000   90.58000    200.00000  17.06862             14.93634
842.62046   335.58746   303.00000  25.05707             15.53576
844.06383   851.45957   235.00000  23.74468             12.87703
844.33447   612.91126   293.00000  27.61420             13.76711
843.02881   908.80247   243.00000  18.58929             16.72257
837.30357   1003.14286  56.00000   11.56102             6.20821
844.11458   666.76562   192.00000  17.22814             14.26016
847.95333   1252.86333  300.00000  23.37244             17.03981
847.94554   7.28713     202.00000  16.71806             15.41284
848.46541   390.03145   159.00000  16.09249             12.94364
846.49123   691.99415   171.00000  15.78236             13.92934
848.95169   254.03382   207.00000  16.92893             15.58530
846.27692   1078.95897  195.00000  24.61756             10.18715
849.40761   1313.11413  184.00000  18.38938             12.77934
852.97510   719.37759   241.00000  28.61303             11.46161
849.66480   61.05587    179.00000  16.25416             14.09186
852.04825   1150.42982  228.00000  20.16752             14.41846
856.74138   371.08621   232.00000  25.11112             12.62597
857.27059   650.29020   255.00000  23.79797             14.07823
853.25794   989.64286   252.00000  19.78577             16.21744
859.78086   554.29012   324.00000  26.93510             15.58536
852.20556   1028.71667  180.00000  19.84136             11.76454
852.30233   894.79651   172.00000  17.29108             12.91873
854.26087   637.29565   115.00000  13.96993             10.49334
857.80889   799.30667   225.00000  19.10814             15.18855
860.45936   1169.44876  283.00000  29.71265             12.28871
855.49640   702.81295   139.00000  15.54595             11.71518
856.06803   944.08163   147.00000  16.12749             11.65821
858.69697   22.20779    231.00000  18.95763             15.59242
861.34728   819.89958   239.00000  20.17387             15.40402
858.09639   882.62651   166.00000  17.11441             12.96681
861.62302   1218.28175  252.00000  20.17326             16.26478
859.02660   272.18085   188.00000  17.27727             13.93387
863.22053   905.36882   263.00000  20.86597             17.08441
861.05263   1102.40081  247.00000  19.23068             16.68291
859.47234   1124.00426  235.00000  20.53770             14.65965
858.61905   1407.10390  231.00000  24.18576             12.25063
863.59050   753.13056   337.00000  22.57726             19.17157
861.20117   1064.86880  343.00000  24.20009             18.32072
859.97080   1184.27007  137.00000  14.59485             12.13547
859.83043   1693.12174  230.00000  19.29860             15.26852
865.01550   939.23256   129.00000  18.41072             9.18490
867.80365   410.87215   219.00000  19.81207             14.14959
865.42593   487.86574   216.00000  17.53468             16.19590
863.74510   1016.69608  102.00000  11.91756             10.91515
870.43110   598.33569   283.00000  26.96539             13.96485
868.75000   956.00000   248.00000  21.13128             15.15356
867.72874   1636.37652  247.00000  28.65729             11.48113
868.56838   260.44872   234.00000  21.83094             13.73539
872.18248   337.70438   274.00000  21.70346             16.34191
868.65152   73.19697    132.00000  14.51958             11.64942
871.48000   930.67429   175.00000  15.09016             14.98343
874.38095   1359.74892  231.00000  22.58323             13.15576
872.40000   109.85946   185.00000  17.12970             13.96831
873.89744   1390.66667  195.00000  17.79613             13.96104
873.28440   1072.12844  109.00000  13.70063             10.34899
877.03431   728.39706   204.00000  17.72801             15.24827
877.42703   1308.97297  185.00000  17.87954             13.26928
879.29137   209.30216   278.00000  20.30143             17.68948
878.68166   782.66436   289.00000  20.03417             19.25310
876.79592   818.42857   245.00000  20.94303             15.74816
877.57651   1006.46975  281.00000  24.52050             15.86968
876.41667   1095.01042  192.00000  17.16781             14.28823
879.68485   439.35152   165.00000  16.52179             12.90046
879.31282   913.62051   195.00000  16.06413             15.54949
882.27799   178.16602   259.00000  19.12316             17.35952
885.54266   424.51877   293.00000  26.46489             14.44673
882.64372   883.81377   247.00000  20.81756             15.24944
882.84756   635.00610   164.00000  17.30669             12.57984
883.73103   1207.16552  145.00000  17.87657             10.36928
884.00000   589.15126   119.00000  14.82338             10.44242
886.94898   400.25510   196.00000  17.84569             14.03057
885.00671   705.85235   149.00000  15.99756             11.97973
889.26754   1033.35965  228.00000  23.90907             12.46825
886.92090   1422.00565  177.00000  17.05665             13.32253
889.94101   1553.93820  356.00000  23.62586             20.42346
890.13299   38.70588    391.00000  26.99224             20.11278
889.43772   1128.35943  281.00000  22.11456             16.34303
887.00746   1638.56716  134.00000  14.99689             11.51401
890.44397   156.56466   232.00000  19.86702             15.04287
890.33700   1625.61172  273.00000  19.29788             18.49364
890.83523   472.97159   176.00000  17.09820             13.50167
891.69395   845.54093   281.00000  21.03607             17.57994
892.19679   1050.83534  249.00000  23.45771             13.68404
892.85388   523.55251   219.00000  19.60637             14.55548
892.49510   1165.58824  204.00000  19.08029             13.67027
895.50607   1304.23887  247.00000  24.36648             13.44117
900.48596   113.80130   463.00000  28.76186             20.61599
895.68837   1250.97209  215.00000  21.84546             12.56426
894.24476   760.95804   143.00000  14.76835             12.44793
893.35468   627.85714   203.00000  22.96428             11.93236
897.36864   652.57203   236.00000  21.08246             14.63863
900.85762   249.37748   302.00000  22.41448             18.44394
902.73148   583.65278   216.00000  21.97274             12.75282
899.07643   1148.70064  157.00000  16.21880             12.35087
901.92460   1236.56349  252.00000  23.67243             13.70321
905.95000   537.53750   320.00000  25.89774             15.86330
903.72821   965.80513   195.00000  18.59274             14.46508
902.47761   1419.94030  201.00000  17.24175             14.94236
900.92857   697.38961   154.00000  19.11095             10.40237
904.49390   773.06098   164.00000  17.22325             12.21683
902.90226   993.06767   133.00000  15.61202             11.01235
903.58537   479.86992   123.00000  14.06872             11.32632
906.16031   801.00000   262.00000  22.60167             15.38976
903.22430   1202.21495  107.00000  12.83694             10.66506
906.85648   1643.84259  216.00000  20.46290             13.57650
907.39344   821.07377   122.00000  18.91657             8.53112
905.17895   834.84211   190.00000  19.48047             12.47060
908.40212   1285.58201  189.00000  17.80139             13.91178
906.92366   1538.57252  131.00000  16.14554             10.43185
906.55479   623.88356   146.00000  15.34573             12.10104
907.56425   1334.52514  179.00000  16.85226             13.63339
913.79730   1527.18468  222.00000  21.60416             13.83896
912.36502   921.70722   263.00000  23.06394             15.08317
911.69620   489.58861   158.00000  16.46867             12.33872
912.95968   682.81855   248.00000  23.47130             13.89698
915.23741   1096.55036  278.00000  22.03696             16.28407
914.81757   1198.54054  148.00000  21.47803             9.13415
910.65657   1207.38384  99.00000   13.35975             10.02118
917.45672   753.05970   335.00000  25.68921             17.24489
914.28750   1661.86250  240.00000  18.57474             16.95938
914.52159   1359.81728  301.00000  24.12809             16.06975
915.31754   1691.54976  211.00000  20.50505             13.11177
915.65698   809.84884   172.00000  18.29747             12.29014
920.40588   851.34706   170.00000  19.26554             11.38805
916.43056   878.86806   144.00000  15.29303             11.99495
918.13542   980.57292   192.00000  16.33409             15.02727
919.80333   1149.42667  300.00000  21.43714             18.25772
918.80451   1341.96241  133.00000  15.12493             11.31442
922.39891   364.19126   366.00000  28.00954             16.78946
918.23810   1041.72024  168.00000  20.79401             10.32898
923.40870   943.70435   230.00000  20.42187             14.44713
925.16729   1409.71004  269.00000  20.54167             17.02419
924.48444   501.58667   225.00000  17.96299             15.95822
925.09474   697.55789   190.00000  20.37224             12.11419
925.68868   1580.52830  212.00000  17.47346             15.75465
928.82418   570.71795   273.00000  23.59289             15.93289
924.77922   895.12338   154.00000  14.42513             13.66135
921.64000   1081.96000  75.00000   11.66898             8.26090
927.71010   283.08143   307.00000  21.89781             18.21119
927.26486   483.74595   185.00000  19.68244             12.00283
924.08257   1229.77982  109.00000  12.65730             11.02165
928.04615   769.91282   195.00000  20.32056             12.41200
925.69461   1054.45509  167.00000  17.77612             12.02269
929.09797   1167.39189  296.00000  28.10917             13.87859
928.75330   1273.64758  227.00000  19.06596             15.45476
928.30263   1012.96053  152.00000  18.16217             10.76118
928.58125   1069.00000  160.00000  15.81917             13.00186
931.38728   1133.30058  173.00000  17.43368             12.69707
932.34231   1367.14231  260.00000  21.04223             16.46847
934.11419   1719.94810  289.00000  21.36831             17.47529
936.18560   326.75623   361.00000  25.91752             18.12421
933.68182   447.29545   264.00000  24.39428             14.51726
932.05344   1079.32824  131.00000  16.39127             10.44796
937.02417   164.03021   331.00000  24.72326             17.19761
931.91061   875.08380   179.00000  19.04784             12.17108
933.65865   904.50481   208.00000  18.92766             14.28670
935.59906   473.12736   212.00000  21.16037             13.09945
943.91188   856.48659   261.00000  37.44109             9.64263
936.32787   1110.90164  183.00000  22.08059             10.84083
936.10606   1553.85227  264.00000  20.18482             16.81220
934.93636   760.24545   110.00000  13.77883             10.52558
934.63281   990.83594   256.00000  21.94123             14.97897
936.54299   1428.37104  221.00000  22.30547             13.44331
935.80833   732.80833   120.00000  17.43887             9.02092
939.36697   1089.74312  218.00000  19.49074             14.27970
937.01361   1200.10884  147.00000  14.77617             13.07343
939.43083   1233.30830  253.00000  21.97857             15.78441
936.93069   596.04950   101.00000  13.84787             9.64117
940.32589   1666.66518  224.00000  17.06598             16.78781
942.12081   673.82550   149.00000  17.31340             11.32240
940.52586   888.38793   232.00000  23.79113             12.93397
946.88433   238.18284   268.00000  23.23748             14.81988
947.24255   605.27234   235.00000  22.81742             13.23033
941.63750   1445.26250  80.00000   10.34268             9.91080
942.78723   51.79787    94.00000   12.70897             9.60484
944.13194   922.77083   144.00000  19.38506             9.59112
944.72376   1151.15470  181.00000  18.53242             12.51058
941.91429   1165.94286  70.00000   10.88274             8.35099
951.02166   656.83394   277.00000  23.02734             15.60548
945.60428   1374.02674  187.00000  18.04500             13.34647
949.26409   967.15430   337.00000  26.09010             17.41840
947.68201   1288.46862  239.00000  19.23109             15.96427
950.06207   1095.38621  145.00000  22.54955             8.42127
947.73214   252.27679   112.00000  13.68879             10.60123
948.24675   1129.68182  154.00000  14.95686             13.24630
947.42708   1172.27083  96.00000   11.61874             10.61820
954.70068   1035.55782  294.00000  28.08890             13.90845
950.34146   1200.89756  205.00000  19.96366             13.89733
955.01042   1450.37500  288.00000  24.83272             15.15938
956.24153   985.25000   236.00000  27.20314             11.62792
949.57895   1112.29605  152.00000  17.90280             10.89607
949.45570   5.08861     79.00000   11.32943             8.91271
953.54359   407.21538   195.00000  18.91328             13.51988
952.25503   765.69799   149.00000  16.64193             11.55128
953.40223   531.65922   179.00000  17.47328             13.05779
953.46734   1533.22613  199.00000  17.75814             14.28546
958.59843   946.79134   254.00000  21.22681             15.32445
956.48598   1363.73832  214.00000  19.36370             14.11252
957.55844   146.86147   231.00000  19.03836             15.51098
957.81538   1022.39615  260.00000  22.01957             15.44486
957.51527   1753.83588  262.00000  21.12236             15.96104
959.50898   1166.13772  167.00000  18.88627             11.37537
959.41844   1352.98582  141.00000  17.52299             10.89660
960.80676   1386.31884  207.00000  22.05453             11.99806
958.34911   741.13018   169.00000  17.62951             13.02057
962.41296   802.41296   247.00000  22.64035             15.42850
957.22222   907.26984   126.00000  13.95584             11.61731
959.34722   788.13889   72.00000   12.46215             7.39455
965.78662   1674.07006  314.00000  22.59966             18.12877
962.78313   496.78916   166.00000  17.49806             12.14044
962.36564   879.14097   227.00000  22.75494             12.96836
963.70098   1303.34804  204.00000  18.02370             14.81166
968.31692   433.86154   325.00000  26.28320             15.89057
963.38182   1459.07273  110.00000  15.04645             9.39563
964.55921   1523.20395  152.00000  18.34462             10.56885
963.27368   858.77895   95.00000   13.43208             9.08434
968.05263   562.49474   285.00000  20.03820             18.49224
968.70833   990.50000   216.00000  17.22017             16.53596
967.68070   1320.41053  285.00000  23.38091             15.94624
967.64497   618.15385   169.00000  16.41129             13.11901
966.19343   827.86496   274.00000  30.50899             11.98741
965.33582   1054.28358  134.00000  16.70957             10.21985
971.71260   1269.13386  254.00000  24.28287             13.48467
970.56383   368.57979   188.00000  17.17006             13.94826
969.96861   1132.47085  223.00000  19.74189             14.39558
966.83333   787.36667   30.00000   6.71348              5.68627
970.86275   104.32026   153.00000  15.39648             12.70940
972.03759   897.87970   133.00000  15.28344             11.09480
971.22727   964.27273   132.00000  14.72092             11.62830
974.16206   1148.47036  253.00000  19.18047             16.97078
976.13274   1471.96018  226.00000  20.75706             13.97045
974.20259   1697.69397  232.00000  20.06762             14.87295
978.93061   1227.35510  245.00000  25.41086             12.43159
974.49045   733.18471   157.00000  15.40833             13.02708
986.28266   782.28979   421.00000  31.77139             17.81361
977.24719   843.24719   178.00000  18.90396             12.15858
975.68447   1061.87864  206.00000  21.35214             12.41536
977.09000   1285.16500  200.00000  19.41305             13.16087
975.41379   49.63218    174.00000  17.09633             13.03602
977.65217   11.02174    184.00000  19.49479             12.05463
979.72000   238.50667   225.00000  20.94101             13.69855
975.65714   775.35714   70.00000   10.78801             8.23478
978.81369   673.20152   263.00000  29.63507             11.49023
982.51953   1078.61719  256.00000  21.84035             15.38743
980.74747   1214.46465  198.00000  16.29214             15.54890
980.88770   1358.97861  187.00000  19.64055             12.19481
979.38182   1747.83636  110.00000  15.86620             9.48362
981.92466   654.66438   146.00000  15.17066             12.31823
983.39157   978.04518   332.00000  24.71790             17.25737
980.68880   1029.25726  241.00000  26.89520             12.49656
983.93011   1398.13978  186.00000  18.68515             12.87746
985.14815   269.35802   243.00000  20.95595             15.08691
985.35000   854.83182   220.00000  18.90171             15.28469
982.99412   1375.25882  170.00000  17.02227             12.83719
985.59624   290.20657   213.00000  18.91303             14.49823
984.65919   951.04484   223.00000  19.63045             14.47131
989.38023   249.33080   263.00000  22.46990             15.06581
985.35032   1114.67516  157.00000  15.22074             13.45677
988.45038   1649.84733  262.00000  21.46315             15.89148
991.75627   603.30108   279.00000  20.13368             17.70420
990.30601   666.25137   183.00000  17.32113             13.48484
991.20597   1246.13731  335.00000  25.38711             17.15271
989.95789   354.86842   190.00000  18.59079             13.09774
992.15649   1012.93130  262.00000  21.04289             16.01992
988.25904   1703.65060  166.00000  18.99828             11.24063
992.77215   1050.75316  158.00000  18.83467             10.70699
992.02069   1155.35862  145.00000  15.74707             11.80560
996.34496   227.14729   258.00000  25.21578             13.47028
992.88839   429.97768   224.00000  22.57866             12.73341
995.17010   1343.48454  194.00000  20.55957             12.11168
996.48797   1523.03436  291.00000  25.90255             14.46522
995.37963   1296.85185  216.00000  19.80515             13.99163
998.57762   916.26715   277.00000  28.81197             12.55789
997.33858   1208.19291  254.00000  20.62484             15.97923
995.01765   1032.13529  170.00000  17.59040             12.37540
998.41053   828.60000   190.00000  16.21966             15.42529
997.36585   1187.36585  164.00000  17.00049             12.42216
1001.20238  1479.32143  252.00000  25.10382             12.93687
997.48780   1368.33740  246.00000  22.10717             14.24132
1006.16475  945.48276   261.00000  27.44036             12.20567
1003.04583  1658.36250  240.00000  19.73740             15.63433
1005.65975  315.18257   241.00000  22.01206             14.17337
1001.34302  965.47093   172.00000  18.27357             12.07703
1007.20641  635.37722   281.00000  24.30946             14.88936
1006.32210  1105.20599  267.00000  20.77093             16.85445
1003.51695  135.77966   118.00000  14.12616             10.66003
1003.67797  711.08475   118.00000  14.72317             10.52019
1005.93789  1144.95652  161.00000  14.88318             13.99606
1011.16381  176.74083   409.00000  27.17511             19.33969
1009.91234  845.32792   308.00000  21.10073             19.74333
1008.59398  880.04511   133.00000  19.71920             9.10764
1004.70769  1690.55385  65.00000   10.39360             8.00996
1008.90657  286.25260   289.00000  21.50162             17.14646
1011.09639  738.97590   249.00000  21.13344             15.47945
1010.44390  1548.74146  205.00000  19.36059             13.61021
1011.24747  718.35354   198.00000  21.80384             12.98004
1013.36449  1157.37850  214.00000  22.92890             12.11228
1012.51304  483.46957   230.00000  19.09464             16.04244
1008.18269  957.47115   104.00000  13.28329             10.00418
1011.04211  10.91579    190.00000  15.88688             15.28714
1012.65761  240.02717   184.00000  17.41202             13.79270
1010.40367  1365.22018  109.00000  13.38694             10.36638
1011.70248  931.10744   121.00000  14.55568             10.66789
1011.88235  1527.83193  119.00000  13.13680             11.65015
1014.55249  1353.02210  181.00000  16.84014             13.85177
1015.37363  355.17582   182.00000  18.85047             12.41400
1018.01465  1440.80952  273.00000  22.02015             16.48114
1017.81890  1710.92126  254.00000  18.25183             18.14668
1015.75455  204.11818   110.00000  12.41842             11.47705
1019.68634  465.33851   322.00000  21.75414             19.31937
1016.13274  774.57522   226.00000  21.81375             13.88193
1018.00546  812.72131   183.00000  17.06361             13.80445
1018.80282  990.95775   213.00000  25.32333             10.94731
1020.40426  1301.25106  235.00000  21.58758             14.82049
1020.06987  148.13100   229.00000  18.85420             15.52826
1019.10638  976.76596   141.00000  15.89069             11.67601
1027.28295  825.03101   258.00000  26.53482             13.11260
1022.06667  1118.41667  180.00000  16.28827             14.25557
1022.94776  1222.05970  268.00000  21.25003             16.56218
1023.58294  496.68246   211.00000  20.03752             13.58620
1020.07104  891.16940   183.00000  22.73579             10.31779
1025.14286  79.39610    154.00000  15.09739             13.44487
1026.21600  678.76400   250.00000  24.68122             13.08494
1029.75601  1024.98969  291.00000  24.60147             15.27746
1026.16774  1130.18065  155.00000  16.15345             12.69303
1023.69048  1185.53175  126.00000  13.26178             12.20610
1027.13836  1751.94340  159.00000  17.33467             11.72996
1030.59289  570.17391   253.00000  23.88611             13.98734
1027.63478  1368.32174  115.00000  14.20652             10.76638
1026.97674  1352.81395  86.00000   11.11166             10.14619
1034.10231  439.41254   303.00000  23.04444             16.99633
1029.27132  718.92248   129.00000  14.41766             11.53510
1027.24096  877.08434   83.00000   11.64310             9.19260
1030.61818  1012.74545  165.00000  17.60130             12.17003
1031.65241  1562.93583  187.00000  16.08112             14.81499
1034.12403  244.76357   258.00000  20.23999             16.28980
1034.08000  1140.91429  175.00000  19.82439             11.29789
1031.26282  1341.62179  156.00000  16.61381             12.04150
1037.76552  1193.37931  290.00000  26.43328             14.33792
1034.51244  895.99005   201.00000  17.86611             14.43675
1037.03415  941.79024   205.00000  25.09810             10.97032
1036.91057  123.44715   123.00000  17.20282             10.14629
1041.76190  192.05263   399.00000  37.53922             14.09247
1034.41216  1179.77027  148.00000  15.72784             12.10728
1035.11950  213.03145   159.00000  15.84003             12.80797
1037.50649  1417.18506  308.00000  22.81294             17.49680
1036.46250  1539.20625  160.00000  14.98887             13.68688
1038.73864  13.24432    176.00000  16.32534             13.73380
1037.16993  790.99346   153.00000  14.80824             13.26914
1038.11062  1688.65929  226.00000  18.89839             15.29015
1039.29630  1717.81944  216.00000  21.26919             13.04660
1041.51389  284.75463   216.00000  19.24863             14.39154
1041.98298  813.22979   235.00000  19.40846             15.59250
1040.63433  699.08955   134.00000  14.64164             11.90307
1043.18293  721.79268   164.00000  17.44641             12.30347
1045.40171  1209.49145  234.00000  22.61321             13.63285
1043.87222  1297.32222  180.00000  18.43233             12.68832
1044.79592  1362.29252  147.00000  14.89847             12.78180
1047.16854  672.76404   178.00000  17.95738             12.90095
1046.79397  876.21106   199.00000  18.60141             13.75203
1049.46939  1674.87245  196.00000  18.17692             13.78915
1049.88000  266.77778   225.00000  17.54270             16.37986
1050.84956  1002.83186  226.00000  18.98472             15.34861
1048.87903  1339.73387  124.00000  14.70182             10.76608
1061.08711  474.22648   287.00000  31.95746             12.30938
1050.53043  1232.53043  230.00000  19.58254             15.14248
1050.30864  1018.12346  162.00000  15.79472             13.12497
1047.90000  1125.62000  50.00000   8.57710              7.38396
1056.60669  605.42259   239.00000  19.76786             15.73046
1052.85350  1068.25478  157.00000  14.56305             13.79884
1060.40616  1090.46218  357.00000  27.91100             17.01391
1055.04930  1142.33803  142.00000  18.55269             9.76128
1057.52792  1275.03046  197.00000  22.12835             11.53385
1057.01796  1486.00599  167.00000  22.75805             9.45994
1055.13136  1607.69492  236.00000  20.40827             14.99293
1057.90805  1249.28161  174.00000  18.92040             11.84840
1055.66514  1768.58716  218.00000  20.84313             13.43201
1055.46622  67.33784    148.00000  18.08480             10.51452
1055.88991  702.44037   109.00000  13.36327             10.42921
1053.68493  718.68493   73.00000   11.54062             8.18748
1057.36508  1045.84127  189.00000  16.31343             14.86848
1057.86567  1159.48756  201.00000  17.35504             15.13535
1058.75446  1474.54018  224.00000  18.47430             15.63178
1061.75115  869.20737   217.00000  21.38393             13.23164
1056.98618  940.62673   217.00000  20.02351             13.88820
1060.07774  1355.26148  283.00000  20.82204             17.33706
1057.88372  767.91860   86.00000   11.07137             9.93397
1062.77912  1215.74297  249.00000  20.76715             15.46223
1061.83117  1813.09091  154.00000  18.38551             11.21607
1064.77517  1413.82886  298.00000  23.10294             16.67565
1063.19737  433.91447   152.00000  16.73991             11.72418
1064.18182  305.11005   209.00000  18.46987             14.41814
1070.69143  1397.08857  350.00000  24.33606             18.77334
1062.33333  761.57576   33.00000   7.02325              5.97608
1067.25000  1119.73333  180.00000  17.08550             13.51514
1065.31522  1265.68478  92.00000   12.96728             9.35161
1069.84103  980.72821   195.00000  19.44135             13.01425
1073.55932  1012.11441  236.00000  26.95488             11.43660
1067.43204  1683.15049  206.00000  18.69593             14.19035
1070.44781  115.65320   297.00000  22.71606             17.35680
1069.02439  576.26829   287.00000  27.64407             13.89142
1067.28571  733.68831   77.00000   10.88905             9.13516
1065.00000  1571.00000  41.00000   7.85229              6.55186
1067.78571  1608.31250  112.00000  14.17359             10.07603
1071.14623  1771.06604  212.00000  16.47783             16.43722
1069.43966  844.75000   116.00000  13.80954             11.07795
1074.29557  1047.78571  406.00000  24.19980             22.98555
1069.37037  746.07407   54.00000   9.34901              7.44974
1070.04861  805.52778   144.00000  17.14832             10.81133
1075.93694  999.69820   222.00000  20.71368             13.85832
1070.86735  1167.07143  98.00000   12.22613             10.28747
1072.06410  1896.89744  156.00000  16.28622             12.24376
1076.14286  1455.50549  273.00000  21.79056             16.31182
1076.24895  600.35443   237.00000  20.78051             14.58295
1078.71747  665.14126   269.00000  24.63365             13.94850
1075.23762  835.14851   202.00000  19.06593             13.61661
1082.04213  1283.69101  356.00000  28.01332             16.71677
1075.89205  1568.33523  176.00000  15.65692             14.36422
1076.73600  1271.57600  125.00000  16.53594             9.64382
1078.06569  1640.83212  274.00000  20.31097             17.43631
1077.24020  757.14216   204.00000  17.36023             15.60680
1080.90681  262.34409   279.00000  21.02431             16.96514
1078.75287  1161.93678  174.00000  18.86765             12.26266
1078.22556  1368.87970  133.00000  17.19818             10.15169
1081.51309  1437.23560  191.00000  22.50316             11.16860
1087.04530  680.96167   287.00000  30.52245             12.24160
1076.00000  733.43103   58.00000   10.31570             7.13369
1076.48936  818.59574   94.00000   12.43816             9.75634
1085.29252  1728.03401  294.00000  27.66865             14.18910
1081.39487  904.35897   390.00000  28.22648             18.58651
1078.92053  1538.55629  151.00000  15.49593             12.64136
1078.32203  1605.01695  118.00000  14.31192             10.53871
1081.58523  444.46023   176.00000  17.78163             12.80054
1080.23684  484.01754   114.00000  12.66962             11.81656
1083.20930  1425.77326  172.00000  17.51288             12.72824
1083.89844  1378.38281  128.00000  15.36460             10.90502
1081.50943  970.41509   106.00000  16.34109             8.25212
1084.12950  1073.37410  139.00000  14.47076             12.52579
1089.69325  1087.27914  326.00000  23.86486             17.76012
1085.72872  1709.70745  188.00000  17.52213             13.75323
1087.16599  208.68826   247.00000  20.25265             15.84785
1093.93421  868.49671   304.00000  30.12740             13.06086
1086.80315  1063.69291  127.00000  15.64327             10.65243
1088.99611  1784.05447  257.00000  22.58896             14.99191
1091.48148  616.70370   243.00000  21.28160             15.22142
1088.53913  1535.42609  115.00000  14.83425             10.26299
1087.47761  1951.58209  134.00000  15.73354             10.96451
1096.03831  1214.08669  496.00000  31.00377             21.18376
1090.93064  1303.04046  173.00000  17.70260             12.45548
1089.92727  961.59091   110.00000  12.75445             11.34972
1090.96610  1318.18644  177.00000  16.71746             13.50277
1090.52830  974.02516   159.00000  16.96521             12.18445
1091.07500  844.32500   40.00000   7.75790              6.66596
1093.66327  1373.88776  98.00000   12.58702             9.94065
1094.68831  1416.83766  154.00000  14.99753             13.10524
1096.47525  1627.91089  202.00000  17.90599             14.51224
1097.15663  1601.85542  249.00000  21.13207             15.18830
1097.64253  1249.76018  221.00000  20.28880             14.05700
1097.47059  801.79412   68.00000   11.41575             7.70334
1098.77011  900.80460   87.00000   11.79492             9.40154
1102.08929  1021.77679  112.00000  16.15005             8.90232
1099.50909  755.07273   55.00000   10.15112             6.84874
1103.20930  1174.51744  172.00000  17.24510             12.81145
1102.51099  1796.42857  182.00000  17.75690             13.07098
1103.20930  489.48837   129.00000  13.99683             11.76539
1107.83568  1106.76526  213.00000  27.01613             10.42605
1104.99408  1358.23077  169.00000  16.96096             13.07036
1107.07422  570.98047   256.00000  21.30398             19.31764
1105.50000  1118.50000  146.00000  14.51242             12.89443
1106.86047  674.93798   129.00000  14.01562             11.87643
1107.91342  1457.84848  231.00000  21.37828             13.90028
1105.96178  1686.54777  157.00000  16.79985             11.89865
1107.41250  124.12500   160.00000  16.86936             12.10174
1110.76157  166.04626   281.00000  20.26072             17.72559
1107.64762  954.66667   105.00000  13.16044             10.15453
1110.34615  289.26374   182.00000  15.76079             14.85151
1118.61333  661.39111   225.00000  33.93575             8.98026
1112.13734  906.96137   233.00000  19.15025             15.60834
1119.01170  653.13450   171.00000  26.91785             8.35491
1113.82888  1736.35294  187.00000  19.59739             12.19645
1118.31338  1216.81338  284.00000  22.88098             16.12521
1118.29119  1528.56322  261.00000  25.84005             13.12034
1119.82273  721.66818   220.00000  24.09886             12.37440
1112.48529  855.88235   68.00000   9.95472              8.68920
1117.24742  1045.14089  291.00000  24.69291             15.21396
1111.76596  1237.55319  47.00000   7.89544              7.58329
1115.16667  1635.58333  240.00000  18.41142             16.69523
1117.49083  1152.63761  218.00000  18.56561             15.03650
1119.71795  1662.26667  195.00000  18.80147             13.39084
1121.69312  1247.43915  189.00000  20.42922             11.84295
1121.01878  1323.75587  213.00000  18.90577             14.52074
1124.69947  213.97074   376.00000  24.83766             19.55064
1119.27200  610.36800   125.00000  14.85362             10.78163
1121.91083  632.10828   157.00000  19.10032             10.73167
1119.37662  1564.68182  154.00000  18.50840             10.65353
1124.75636  1269.28000  275.00000  24.79998             14.70215
1121.51042  1790.17708  96.00000   11.29495             10.95843
1122.04651  600.31395   86.00000   12.45191             8.87058
1124.26638  776.82096   229.00000  20.42981             14.90746
1127.55851  198.42553   188.00000  17.83717             13.67052
1125.51235  480.62963   162.00000  15.83409             13.13079
1127.70270  546.54505   222.00000  18.55450             15.68769
1130.69831  686.15932   295.00000  24.65129             15.78062
1127.86667  948.12083   240.00000  19.89471             15.56114
1126.14384  1463.71918  146.00000  14.56386             12.82976
1129.18672  253.88382   241.00000  18.28460             16.89911
1134.87535  869.07082   353.00000  32.84586             14.33488
1130.58730  1162.45503  189.00000  18.10207             13.55967
1129.29268  1444.89024  246.00000  18.56709             17.53720
1132.03779  989.40698   344.00000  24.49072             20.10662
1131.49412  1097.97059  170.00000  19.74068             11.16652
1131.83060  122.13115   183.00000  15.90938             14.69448
1131.34463  1562.83051  177.00000  16.48977             13.69518
1133.35632  1086.44253  174.00000  15.75073             14.16132
1134.48936  607.75887   141.00000  16.89905             10.68640
1131.29333  972.40000   75.00000   10.55975             9.13135
1134.00680  1024.96599  147.00000  15.80273             11.90193
1130.37931  565.34483   29.00000   6.98904              5.29644
1133.00000  801.36893   103.00000  13.92655             9.60126
1133.49167  1343.26667  120.00000  13.56733             11.27188
1136.07065  620.36413   184.00000  18.68572             12.70190
1135.39306  1213.21965  173.00000  15.47075             14.39016
1133.89216  1861.13725  102.00000  12.50218             10.75540
1138.74194  1057.72581  248.00000  20.35989             16.26732
1138.20225  1642.07865  178.00000  17.90453             12.78079
1133.95833  727.60417   48.00000   8.49232              7.37195
1134.27660  840.53191   47.00000   8.37683              7.12152
1144.75227  280.85196   331.00000  28.01483             15.25018
1139.74062  543.35625   320.00000  30.96843             14.37704
1141.71841  737.01805   277.00000  20.62086             17.27973
1142.73810  1075.15079  252.00000  20.18435             16.07583
1140.16892  1358.16892  148.00000  16.83535             11.47423
1138.82266  1770.73892  203.00000  22.69466             11.47320
1142.23182  489.03636   220.00000  17.25011             16.29133
1141.17857  923.76190   168.00000  17.73981             12.28534
1140.93130  1415.72519  131.00000  14.78335             11.29822
1148.20000  702.11600   250.00000  26.63077             12.07025
1143.79769  137.54335   173.00000  15.53052             14.24769
1145.87879  1337.03409  264.00000  20.62362             16.42763
1143.66316  834.86316   95.00000   12.09753             10.06495
1146.22798  1319.49741  193.00000  17.48050             14.20590
1146.46429  1526.42857  196.00000  20.16569             12.44490
1146.61475  511.62705   244.00000  24.25881             12.97761
1146.22609  1031.66957  115.00000  14.39272             10.27397
1149.59606  1391.80788  203.00000  23.19461             11.30199
1149.82895  717.10088   228.00000  26.88434             11.66061
1146.88889  1017.60684  117.00000  15.59538             9.74867
1147.41877  1104.54874  277.00000  22.05876             16.76156
1149.79252  1439.44558  294.00000  26.75575             14.34437
1155.58589  1209.88344  326.00000  31.22877             13.51977
1151.32663  1265.54774  199.00000  20.60292             12.66053
1156.61639  875.95082   305.00000  28.63200             13.82059
1151.30667  1176.77333  150.00000  18.91601             10.35719
1151.98276  1305.08621  174.00000  16.65808             13.38015
1154.88406  80.57971    207.00000  17.57151             15.16950
1156.73160  620.65801   231.00000  24.36415             12.41441
1160.74909  1127.38545  275.00000  33.91373             10.71355
1154.66477  1166.55114  176.00000  16.97263             13.40959
1153.18182  1356.80000  165.00000  17.57012             12.06602
1151.40789  1410.64474  152.00000  15.90575             12.21774
1153.75000  60.31696    224.00000  21.02603             13.66221
1153.34831  114.53933   178.00000  15.61582             14.67477
1158.94671  768.03135   319.00000  28.20133             14.64684
1152.03409  914.71591   88.00000   13.10961             8.93974
1156.74757  579.54369   206.00000  19.30241             13.67295
1157.01667  1061.98333  180.00000  18.09072             12.73339
1156.84302  1187.63372  172.00000  17.71124             12.54774
1156.52047  1639.43860  171.00000  14.93758             14.58050
1162.27139  641.35398   339.00000  25.31701             17.21137
1155.68919  970.85135   74.00000   9.85474              9.59791
1159.71888  231.15663   249.00000  18.28454             17.43428
1159.04262  1017.28852  305.00000  28.05396             14.23070
1159.31847  1076.75796  157.00000  16.59487             12.45677
1159.78344  959.88535   157.00000  14.97073             13.66149
1165.80921  469.73684   304.00000  22.81390             17.49417
1162.01630  1379.60870  184.00000  18.58634             12.73843
1171.24752  1105.30363  303.00000  34.22685             11.79283
1169.63177  165.05415   277.00000  24.86180             14.59858
1168.28512  486.59917   242.00000  24.44304             12.72424
1164.69643  1603.02976  168.00000  15.05996             14.23257
1164.77432  528.99222   257.00000  27.15814             12.14123
1163.78261  1827.45652  92.00000   13.55707             8.97981
1168.67094  813.44444   234.00000  17.74022             17.01628
1167.89189  889.27413   259.00000  20.83732             16.30595
1170.26577  988.02252   222.00000  20.88115             13.81054
1166.20769  1365.71538  130.00000  15.64416             10.61407
1171.53776  1717.12991  331.00000  24.80362             17.51214
1171.40476  49.70952    210.00000  16.98067             15.78274
1170.71257  123.64072   167.00000  15.54225             13.72911
1168.23684  928.93421   76.00000   12.15182             8.01303
1173.29956  674.05286   227.00000  17.60833             16.60978
1170.37500  902.01389   72.00000   10.78502             8.49099
1172.60000  1249.52500  120.00000  12.86287             12.02123
1176.84585  1274.56126  253.00000  24.80179             13.83944
1175.69149  411.54255   282.00000  28.48387             12.86800
1174.40559  717.15035   286.00000  28.37982             13.35206
1171.14925  967.88060   67.00000   10.23899             8.32973
1180.76531  1115.10204  294.00000  28.72772             13.32215
1172.26712  1546.12329  146.00000  16.31909             11.41140
1174.47090  235.00000   189.00000  17.51400             13.76360
1180.20000  91.80755    265.00000  23.63778             14.75408
1179.12255  1615.83824  204.00000  19.47558             13.51120
1178.59643  187.15000   280.00000  23.44209             16.21338
1178.51923  1155.37821  156.00000  14.69328             13.58233
1181.11966  549.42308   234.00000  23.10132             12.92932
1178.88688  1312.42986  221.00000  18.81765             15.39883
1180.47020  1555.49007  151.00000  15.95686             12.21599
1182.14732  1005.09375  224.00000  19.60042             14.58644
1183.94118  1252.75735  136.00000  18.17113             9.82139
1185.79478  1655.75373  268.00000  22.08395             15.49283
1183.62911  799.08451   213.00000  19.72372             13.98934
1186.37037  820.81070   243.00000  21.36399             14.77196
1183.20958  902.14970   167.00000  19.36395             11.12262
1181.99167  921.29167   120.00000  14.30192             10.83018
1187.42292  510.16601   253.00000  21.65139             15.18091
1185.87374  1045.01515  198.00000  17.68910             14.60208
1184.08917  1375.72611  157.00000  19.04035             10.64829
1187.12409  1514.48175  274.00000  21.92241             16.09107
1188.07623  776.26009   223.00000  19.66633             14.46465
1188.01992  857.91235   251.00000  18.78982             17.12460
1189.57198  629.99222   257.00000  26.07609             12.99148
1187.84153  740.48087   183.00000  17.84115             15.22567
1186.36019  1423.03791  211.00000  18.84532             14.77499
1190.86580  1786.84848  231.00000  20.07250             14.99804
1192.67686  162.46288   229.00000  20.37005             14.51687
1187.96875  787.15625   64.00000   10.54847             7.98896
1195.09843  643.67717   254.00000  22.84965             14.36449
1193.35751  659.53368   193.00000  19.95739             12.46392
1193.85350  928.37580   157.00000  17.66231             11.83056
1193.19108  1452.29936  157.00000  17.63445             11.38449
1194.68952  600.90726   248.00000  25.57692             13.23287
1194.17045  1373.07386  176.00000  20.13378             11.55960
1192.85854  1545.51707  205.00000  18.27144             15.05681
1196.65922  1157.42458  179.00000  18.51538             12.35112
1201.49279  1497.97596  416.00000  26.51230             20.97827
1197.18919  677.30811   185.00000  18.71368             12.69895
1199.01493  1729.91418  268.00000  22.65886             15.21020
1207.94195  1462.51187  379.00000  27.44115             20.17583
1201.63902  45.48293    205.00000  17.99024             14.69224
1200.46774  871.61290   186.00000  18.69762             12.73830
1203.25153  721.34663   326.00000  26.92402             15.64845
1202.79186  1568.66063  221.00000  20.63558             13.70466
1203.84667  1666.27333  150.00000  17.54294             11.36106
1206.61033  1031.42723  213.00000  20.07379             14.28460
1207.03022  107.01374   364.00000  33.78105             14.75101
1208.55474  151.23358   274.00000  22.08248             16.21024
1205.91935  887.39247   186.00000  16.35974             14.56115
1204.44444  923.11111   90.00000   11.40865             10.16290
1207.85405  1305.67027  185.00000  18.74700             12.60907
1208.16031  22.51145    262.00000  25.10976             13.44096
1209.77736  516.21509   265.00000  20.25600             16.78619
1206.48571  1139.05714  175.00000  15.63897             14.34299
1206.86301  1443.69863  146.00000  15.36571             12.14317
1207.16000  1839.70857  175.00000  15.87808             14.13136
1207.70312  1888.20312  192.00000  19.65428             12.48221
1208.52778  984.20833   72.00000   9.89338              9.30190
1211.54132  1183.30165  242.00000  20.08690             15.78026
1217.79730  637.70270   222.00000  25.78534             12.74842
1212.52308  1067.31795  195.00000  16.72287             14.95195
1219.32571  1259.72286  350.00000  28.06963             16.17276
1220.02623  1113.11475  305.00000  24.91609             16.07614
1216.62281  1396.31579  228.00000  19.67311             15.01725
1219.66538  958.73462   260.00000  23.25978             14.68656
1222.55326  614.59450   291.00000  27.14402             14.30077
1219.08219  1772.43151  146.00000  16.11246             11.54325
1220.36747  809.54819   166.00000  14.82962             14.26785
1225.19455  654.63424   257.00000  21.69481             15.46144
1222.96089  1202.81006  179.00000  17.32015             13.23667
1221.03518  1364.83417  199.00000  20.22993             12.96375
1222.72131  1178.96721  122.00000  14.36947             10.91230
1226.44749  1439.61644  219.00000  20.16805             13.97855
1226.05455  50.66818    220.00000  19.22972             14.59668
1225.78673  1460.25118  211.00000  18.42558             14.72634
1227.61039  1500.74026  231.00000  19.85540             14.93317
1224.71429  1582.50376  133.00000  13.74755             12.34769
1227.52740  1072.47260  146.00000  16.80569             11.12615
1230.26792  364.55472   265.00000  19.08257             17.72288
1230.87719  763.29386   228.00000  19.71757             15.03148
1228.80412  1089.94330  194.00000  18.71495             13.36608
1230.07018  779.66667   228.00000  18.74994             15.72084
1230.70395  1647.03947  304.00000  24.85243             15.79083
1230.27064  1907.50459  218.00000  18.92656             14.85552
1232.96833  1337.85520  221.00000  18.30898             15.59194
1226.82222  112.40000   45.00000   8.28166              6.86323
1231.15441  714.06618   136.00000  17.14494             10.28760
1234.88360  869.10317   378.00000  25.54521             20.17613
1231.88000  1218.12000  150.00000  15.05026             12.80060
1230.60000  1283.48696  115.00000  12.19539             12.00204
1239.68927  243.25141   354.00000  32.18905             17.45368
1232.29703  995.13861   101.00000  12.69559             10.16079
1234.18667  1304.19111  225.00000  19.19542             14.94622
1234.70652  84.83152    184.00000  16.42082             14.30424
1236.19876  793.93168   161.00000  16.60754             12.42136
1238.01103  1161.00735  272.00000  19.72320             18.23357
1239.89238  575.28700   223.00000  19.09671             15.18144
1238.14615  833.95769   260.00000  19.75804             16.85285
1234.54054  977.06757   74.00000   12.29242             7.69958
1241.43539  742.97472   356.00000  29.66122             17.00629
1235.12857  1034.11429  70.00000   11.57034             7.96040
1241.92532  1449.51623  308.00000  27.99080             14.39357
1240.85563  1583.92254  284.00000  20.86253             17.51905
1241.43678  156.98851   174.00000  17.26473             12.96949
1243.22222  914.12169   189.00000  19.04023             12.66409
1239.65891  1766.42636  129.00000  14.32548             11.51991
1244.40083  1140.56198  242.00000  25.28776             12.60118
1245.71849  1481.11345  238.00000  22.57796             13.61988
1244.98122  712.68075   213.00000  20.04920             14.02074
1241.82258  1036.53226  62.00000   9.71927              8.26083
1243.92982  1206.36257  171.00000  17.77962             12.64245
1245.41081  1431.00541  185.00000  15.68734             15.03100
1248.10056  1598.67598  179.00000  18.72015             12.35166
1245.94595  785.10811   74.00000   10.53114             8.94407
1251.37220  732.50224   223.00000  22.71995             13.42341
1249.96447  1533.33503  197.00000  16.08399             15.77368
1251.84264  1337.03046  197.00000  18.96529             13.48615
1255.21963  616.81776   214.00000  21.84550             12.52340
1254.23232  764.55556   297.00000  19.94262             19.32441
1253.48338  1260.74425  391.00000  26.98075             18.87314
1258.84419  142.67139   353.00000  24.24770             19.23953
1257.23387  639.93548   124.00000  18.91029             8.42661
1256.74566  125.62428   173.00000  18.25719             12.09332
1259.37449  884.11934   243.00000  22.56026             14.37086
1261.04500  1486.81500  200.00000  21.68081             11.82212
1258.15979  1767.69072  194.00000  17.68961             14.06701
1261.32735  697.30493   223.00000  22.18580             12.82429
1258.90045  1438.59729  221.00000  19.19172             14.71175
1263.20961  551.26638   229.00000  31.26054             9.83429
1260.71245  656.66953   233.00000  20.36222             14.84081
1265.74820  1223.92086  278.00000  24.94834             15.45491
1263.74641  1459.13397  209.00000  21.32218             12.68276
1263.04724  1650.35039  254.00000  20.95703             15.55077
1264.56140  1471.23977  171.00000  16.61548             13.13086
1266.12658  683.77215   158.00000  16.04925             12.64782
1271.09153  821.74237   295.00000  26.96867             14.39620
1273.48000  555.43111   225.00000  24.81349             12.65734
1268.57143  1426.62857  175.00000  18.30003             13.02250
1267.62032  1613.24064  187.00000  16.05156             14.91193
1270.40726  471.47984   248.00000  21.07873             15.00735
1268.17778  961.25185   135.00000  16.04132             10.72208
1268.16429  1188.00000  140.00000  14.65205             12.23928
1271.02488  1323.75622  201.00000  17.21795             14.99235
1272.46032  637.68783   189.00000  17.33156             13.96977
1272.33452  798.79715   281.00000  25.50933             14.16853
1270.43662  1064.32394  71.00000   9.99037              9.05842
1271.00000  1166.29358  109.00000  13.63372             10.39626
1272.37321  1353.64593  209.00000  20.41255             13.22288
1269.66667  651.36667   30.00000   6.86015              5.72213
1274.60294  1541.96324  272.00000  21.41655             16.23610
1275.95706  61.63190    326.00000  26.16025             16.16999
1277.34630  1579.19066  257.00000  20.69592             16.11617
1276.40462  756.26012   173.00000  16.83867             13.11289
1276.05988  1666.58683  167.00000  16.30979             13.04225
1272.18182  1373.54545  33.00000   7.08915              6.04780
1276.50877  982.21930   114.00000  13.06923             11.13253
1276.40000  1175.72632  95.00000   12.88813             9.60212
1277.63918  1184.87629  97.00000   12.36515             10.43348
1281.05747  1212.29885  174.00000  19.15681             11.63799
1281.00444  1738.62222  225.00000  18.14100             15.82116
1288.62538  603.52568   331.00000  27.81749             15.31751
1284.84937  961.67782   239.00000  21.76532             14.13015
1282.53182  1359.60909  220.00000  23.12755             12.88978
1280.27358  1430.04717  106.00000  11.99800             11.28798
1281.56667  1762.15185  270.00000  23.29266             14.86647
1284.94419  1292.50233  215.00000  20.53665             13.48008
1286.84388  627.81435   237.00000  23.68229             14.08222
1292.66667  1412.91156  294.00000  35.94392             10.66285
1283.62500  1048.07500  80.00000   10.58613             9.67440
1289.48163  1474.08571  245.00000  22.87511             13.68518
1285.23478  1716.10435  115.00000  13.45802             10.88515
1291.00649  915.96753   308.00000  22.57549             18.06891
1290.87773  1319.10917  229.00000  17.90569             16.37137
1291.77291  496.46215   251.00000  24.39715             14.19481
1292.37553  1167.13080  237.00000  20.31356             15.43361
1294.76327  831.98776   245.00000  19.74579             16.61854
1294.65000  864.41538   260.00000  22.34450             15.54159
1293.63030  980.35152   165.00000  16.99466             12.68593
1292.72449  1185.76531  196.00000  18.63210             13.52753
1293.59091  1524.62121  198.00000  18.50310             13.71482
1293.21244  1699.69948  193.00000  16.97024             14.64465
1295.62500  1246.76736  288.00000  20.57977             18.03304
1293.11458  1030.77083  96.00000   11.59570             10.53515
1300.01261  818.56303   238.00000  21.83502             14.40260
1302.17320  725.45752   306.00000  24.66558             16.24695
1301.91935  1289.12500  248.00000  19.58349             16.20246
1304.60726  653.40594   303.00000  26.15598             14.89860
1302.20000  1588.96744  215.00000  24.50052             11.40207
1301.35468  1228.90640  203.00000  22.90958             12.24598
1306.93156  1203.65399  263.00000  22.76557             14.78094
1302.74595  1455.48108  185.00000  17.75942             13.36220
1303.93916  1505.18251  263.00000  20.79235             16.43511
1304.76364  1673.61818  220.00000  19.75864             14.24356
1305.01299  213.64935   231.00000  23.16050             12.82627
1308.73699  518.88767   365.00000  25.29179             18.51065
1304.27530  1816.52227  247.00000  21.17447             15.02576
1308.09441  457.87762   286.00000  23.30745             16.40536
1304.58647  883.09023   133.00000  16.57284             10.28946
1309.77689  927.58964   251.00000  22.90385             14.31527
1305.51515  941.65152   66.00000   10.20368             8.35565
1312.70608  691.62500   296.00000  28.90735             13.36303
1310.94815  1146.04444  135.00000  14.70327             11.78724
1312.76364  1224.26061  165.00000  19.03431             11.12924
1312.43568  1253.22822  241.00000  19.74334             15.65255
1312.41791  1785.35323  201.00000  17.36510             15.27886
1309.07937  1847.69841  126.00000  14.07064             11.40666
1312.57216  1382.75258  194.00000  19.73935             12.61388
1311.01282  838.75641   78.00000   11.56575             8.58439
1319.08767  1190.45753  365.00000  23.52146             20.44820
1322.41538  1641.14103  390.00000  27.71983             19.15601
1316.82824  760.29389   262.00000  21.69343             15.60092
1324.21377  1268.02174  276.00000  25.32630             14.12109
1319.77083  665.40278   144.00000  14.65629             12.56457
1321.64356  528.42079   202.00000  19.21472             13.77715
1321.52607  593.87678   211.00000  17.99357             15.43481
1319.86885  1159.71585  183.00000  18.26269             12.82544
1320.20207  1599.81865  193.00000  17.78500             13.92900
1322.43373  1293.50602  166.00000  17.56581             12.16346
1318.62500  1398.02083  48.00000   8.49921              7.15354
1326.61511  1307.34892  278.00000  20.92056             17.59081
1326.58333  1359.97727  264.00000  20.86054             16.29250
1320.15556  935.80000   45.00000   8.36380              6.86033
1325.70588  1773.64706  255.00000  21.07718             15.52831
1325.55801  621.42541   181.00000  16.74043             14.04223
1326.16230  683.76963   191.00000  16.40935             15.08777
1325.97835  911.90043   231.00000  19.42502             15.24150
1323.62500  1374.22222  72.00000   11.75882             7.84722
1322.30556  1809.99074  108.00000  13.88985             9.93046
1328.05797  462.40097   207.00000  18.17828             14.54715
1326.07857  856.18929   280.00000  23.23639             16.93427
1326.03759  1146.14286  133.00000  13.60474             12.59452
1328.05882  1422.66436  289.00000  23.59905             16.63974
1331.17871  560.26616   263.00000  24.43000             14.04752
1327.21379  1705.13793  145.00000  15.23159             12.25522
1327.56589  886.48062   129.00000  13.08984             12.65122
1332.91901  1098.85563  284.00000  22.42753             16.27938
1331.20000  1603.50000  190.00000  22.96700             11.35841
1334.53535  603.13805   297.00000  25.68829             15.18824
1330.36458  965.96875   96.00000   12.56512             9.84761
1338.05648  1481.14950  301.00000  28.21435             14.35503
1338.65950  634.84229   279.00000  20.54236             18.03109
1337.18876  1559.88755  249.00000  19.43155             16.52708
1338.12821  753.14872   195.00000  18.88821             13.20269
1333.72340  926.63830   47.00000   9.00045              6.71091
1338.09938  1327.77640  161.00000  16.23184             12.74759
1340.32857  1287.87619  210.00000  17.77945             15.69757
1338.82317  1465.79268  164.00000  16.90197             12.58973
1345.57258  861.70968   248.00000  21.62710             14.65728
1341.00893  1519.28125  224.00000  21.10828             13.74104
1342.11594  1792.20290  207.00000  19.00710             14.02487
1342.96000  1401.03333  150.00000  16.75577             11.65965
1344.33103  1204.41379  145.00000  16.77810             11.17705
1346.26273  1377.36193  373.00000  34.53764             15.82222
1344.39516  970.87903   124.00000  13.48604             11.93155
1349.07491  1192.01498  267.00000  19.48520             18.44055
1349.53081  1764.12322  211.00000  21.63058             12.87829
1344.07547  962.16981   53.00000   9.25323              7.52447
1347.23239  1318.95070  142.00000  16.01667             11.32987
1347.52419  1841.16129  124.00000  13.76923             11.70809
1349.89474  573.15789   266.00000  20.24318             17.91832
1351.37634  1506.29570  186.00000  21.19755             11.63924
1349.09009  1710.91892  222.00000  22.67671             12.75057
1348.67980  671.15764   203.00000  19.05968             13.70811
1352.29020  177.78039   255.00000  20.25822             16.14745
1351.86301  786.92694   219.00000  19.30274             14.78693
1352.07285  1283.21854  151.00000  18.95618             10.71113
1351.73282  1882.90840  131.00000  17.13733             9.82273
1354.12879  1389.25758  132.00000  14.40988             11.69815
1356.53448  1445.88793  116.00000  13.39534             11.32286
1359.90698  1623.55349  215.00000  24.37594             12.80956
1355.29091  1271.56364  55.00000   9.14540              7.69162
1358.18349  1604.03670  218.00000  17.62566             15.89777
1354.93182  1240.54545  44.00000   8.55399              6.56395
1359.35714  415.81696   224.00000  27.64214             10.53461
1360.00000  1133.63504  137.00000  15.49682             11.29022
1362.89542  1426.00654  153.00000  14.62775             13.58670
1369.74587  1659.27063  303.00000  29.41085             14.20330
1370.71918  832.23288   292.00000  32.52190             11.80802
1364.57843  1249.21569  102.00000  12.17439             10.71010
1372.14356  1350.26238  202.00000  28.91437             9.13231
1369.56364  25.36364    220.00000  18.26664             15.45681
1369.33061  1562.99592  245.00000  18.36596             17.09743
1370.51397  1239.41341  179.00000  18.49121             12.35902
1373.19101  666.73034   267.00000  22.40355             15.73197
1369.48092  1372.46565  131.00000  15.85182             10.70316
1372.49027  1739.77043  257.00000  20.27414             16.31469
1371.48889  712.78667   225.00000  19.26653             15.19765
1370.61413  1260.81522  184.00000  16.79804             14.14926
1369.55385  1438.56154  130.00000  13.78365             12.14512
1371.22527  1707.27473  182.00000  15.46937             15.06608
1372.26235  421.58333   324.00000  30.13465             14.15346
1374.23265  1463.10612  245.00000  20.18617             15.83057
1370.29167  1780.11111  144.00000  16.43886             11.27360
1372.65190  808.82278   158.00000  16.92068             12.21573
1370.52941  1038.23529  68.00000   9.97406              8.89651
1378.24500  1511.62000  200.00000  23.16298             11.56399
1375.11724  383.64483   290.00000  26.87848             14.26832
1373.76761  1003.54930  142.00000  14.20526             12.84185
1373.88636  1383.59091  132.00000  14.99352             11.27377
1380.08581  906.37954   303.00000  21.99992             17.57502
1372.20930  1124.83721  43.00000   7.67779              7.12814
1377.43333  1497.24444  180.00000  18.12734             12.84675
1376.88406  1589.95652  207.00000  17.25361             15.31505
1375.74689  354.28216   241.00000  23.72167             12.99203
1378.99267  1283.49817  273.00000  20.45978             17.14207
1380.95062  981.81481   324.00000  22.17926             18.68878
1376.01852  1159.10185  108.00000  14.19182             9.69414
1376.27586  887.70690   58.00000   9.39816              7.99006
1382.05303  556.82576   264.00000  21.67647             15.83322
1381.79085  1450.54248  153.00000  15.01266             13.12020
1385.50000  1395.50000  168.00000  18.46613             11.65995
1384.88205  1858.02564  195.00000  18.68009             13.42445
1381.10256  484.82051   39.00000   7.67580              6.52321
1387.64216  875.25490   204.00000  19.69513             13.24259
1388.96216  708.85405   185.00000  17.51564             13.95730
1392.23723  1218.50000  274.00000  27.66199             12.75089
1386.37879  1426.42424  132.00000  17.19343             9.87490
1388.47126  960.40230   174.00000  17.98750             12.57104
1384.85135  1026.05405  74.00000   10.59563             8.91900
1392.03004  793.46352   233.00000  20.31179             15.19588
1387.68657  1000.91045  67.00000   9.92778              8.59235
1388.85714  1634.92857  112.00000  13.37632             10.65472
1392.39910  1824.58744  223.00000  19.19046             14.89144
1394.83550  1187.71861  231.00000  20.96177             14.11071
1395.26923  1242.93269  208.00000  18.76322             14.17262
1399.33333  1338.30333  300.00000  29.78392             13.18035
1391.94690  1318.89381  113.00000  13.23084             10.90639
1394.26667  350.14444   180.00000  18.09269             12.72201
1403.12153  916.38889   288.00000  26.27071             14.68273
1394.07194  1585.52518  139.00000  14.13079             12.57257
1398.98361  976.01093   183.00000  18.50460             12.60930
1398.64062  1291.06771  192.00000  19.22982             12.87404
1399.11416  652.67580   219.00000  18.04074             15.53028
1395.06818  762.15909   44.00000   8.52677              6.73501
1402.00000  995.83562   292.00000  20.65503             18.10185
1395.02703  1012.24324  37.00000   7.43059              6.31094
1396.50000  1058.00000  78.00000   10.44153             9.45706
1404.52174  690.60079   253.00000  24.68159             13.20949
1402.54867  723.98673   226.00000  19.09010             15.14841
1401.87634  778.13978   186.00000  21.01153             11.45075
1405.13842  1376.91808  354.00000  26.76980             17.46094
1399.21212  828.48485   66.00000   10.42432             8.07940
1402.98936  1319.20213  188.00000  20.00561             12.16084
1406.05645  478.46774   248.00000  18.77372             17.41326
1407.95276  147.63780   381.00000  27.61173             17.62167
1404.22656  556.35938   128.00000  14.22320             11.55153
1403.49138  1578.81897  116.00000  13.54282             10.97006
1405.76442  1727.30769  208.00000  16.97137             15.66821
1403.75556  1036.74444  90.00000   11.47703             10.00273
1408.82955  1225.73295  176.00000  18.82251             12.00067
1410.39779  1695.23204  181.00000  19.85398             11.63893
1408.37383  806.00000   107.00000  14.25136             9.86493
1409.73500  1514.25000  200.00000  19.20661             13.50342
1411.36869  958.67677   198.00000  16.28764             15.56082
1410.68023  1785.36047  172.00000  18.10971             12.17500
1412.62651  465.07229   83.00000   11.60176             9.36280
1416.37327  588.88940   217.00000  22.11505             13.58509
1416.65385  1211.39423  208.00000  20.68316             13.52331
1417.07937  1269.96825  189.00000  20.51358             11.81458
1416.91416  1677.60515  233.00000  17.86548             16.69718
1418.65888  1043.72430  214.00000  19.52871             14.29724
1420.32090  784.97015   134.00000  15.55197             11.34255
1426.92140  812.84279   229.00000  27.01764             11.37983
1419.48951  489.74126   143.00000  15.83970             11.62961
1423.62006  1474.91489  329.00000  23.63350             18.17189
1426.22695  860.74113   282.00000  23.40372             16.06329
1424.29719  467.74297   249.00000  20.31722             15.73173
1425.17857  913.11607   224.00000  20.18287             14.36007
1422.28378  1763.68243  148.00000  15.10281             12.59892
1424.86592  1729.07821  179.00000  16.19884             14.21954
1425.44811  504.50943   212.00000  18.25075             14.94637
1423.21505  545.45161   186.00000  22.32345             10.74554
1427.95865  694.78195   266.00000  24.94350             13.93041
1428.21622  1489.27568  185.00000  20.12374             12.35120
1426.29834  926.90608   181.00000  16.37503             14.20899
1427.91220  1291.92195  205.00000  18.33312             14.49197
1425.31395  1616.27326  172.00000  16.07247             13.72900
1432.44781  769.82155   297.00000  25.76766             14.86550
1429.70722  1327.79468  263.00000  24.97724             13.76529
1426.55479  1777.95205  146.00000  14.43448             12.90425
1427.98378  451.30270   185.00000  16.06426             14.86858
1430.48221  1020.42688  253.00000  20.66608             16.04294
1432.61616  315.95960   198.00000  19.14658             13.32101
1429.84211  730.45263   95.00000   15.38054             8.01668
1432.25965  881.69123   285.00000  25.30048             15.27402
1427.08108  1301.29730  37.00000   7.60750              6.19163
1433.41696  1396.97880  283.00000  22.16329             16.30863
1433.28313  825.69880   166.00000  15.96899             13.47167
1434.44498  1255.14354  209.00000  19.47258             13.75731
1429.98214  1311.37500  56.00000   9.32079              7.63520
1433.68396  597.11321   212.00000  23.33177             11.67544
1441.01071  665.78571   280.00000  24.39246             14.96615
1435.05319  1682.39362  188.00000  17.15061             14.00959
1438.61265  1647.38735  253.00000  23.88694             13.83285
1434.78947  751.21053   114.00000  14.43817             10.15399
1438.82569  1468.66055  218.00000  19.09111             14.80478
1439.45876  580.21134   194.00000  19.26453             12.85174
1440.30542  966.72906   203.00000  17.74696             14.60731
1446.39336  1559.08057  211.00000  25.21147             11.08268
1442.56612  1626.79752  242.00000  21.87844             14.28563
1446.70659  1444.71257  334.00000  26.08404             16.94624
1444.13043  614.36232   207.00000  17.64788             15.03349
1447.29021  1339.98252  286.00000  24.67709             15.08704
1443.64253  1711.18552  221.00000  17.15395             16.47203
1450.07589  708.64286   224.00000  22.47886             13.23671
1447.04020  1401.72362  199.00000  17.69509             14.87258
1445.83916  1492.40559  143.00000  14.54175             12.56850
1443.57447  1290.95745  47.00000   8.52659              7.04611
1447.89933  1543.05369  149.00000  16.81580             11.42588
1452.91880  547.73932   234.00000  22.31973             14.13202
1453.35786  1177.31773  299.00000  28.42437             14.95062
1453.25532  1665.34468  235.00000  23.56838             12.92417
1453.44186  306.53953   215.00000  17.93984             15.40702
1455.95017  936.06645   301.00000  22.86199             17.26276
1455.40157  1257.16798  381.00000  28.10413             18.68394
1456.20853  1420.22275  211.00000  21.36400             12.78124
1455.54592  784.61224   196.00000  18.34686             13.68354
1461.46371  125.20968   248.00000  19.25484             16.61356
1464.10550  855.31651   218.00000  19.64386             14.30494
1461.20755  1614.48428  159.00000  15.52903             13.04632
1463.26136  535.28409   176.00000  16.52301             13.66703
1466.01333  1528.62667  225.00000  22.05626             13.28122
1461.72043  1742.44086  93.00000   11.68777             10.58825
1461.45455  557.89610   77.00000   11.20739             8.76573
1461.44444  1281.84127  63.00000   10.46852             7.74938
1468.91667  1272.18939  264.00000  20.42832             16.81085
1467.67039  911.29050   179.00000  16.39330             13.97176
1468.50400  1687.25600  250.00000  20.72512             15.41884
1471.62054  480.70089   224.00000  21.20904             13.52293
1471.03817  789.47710   262.00000  25.68935             14.25273
1469.55932  1594.49153  118.00000  12.32961             12.17630
1469.14000  1211.24000  50.00000   9.50642              6.66279
1476.87365  1775.72924  277.00000  26.46420             13.53672
1479.47436  1196.54167  312.00000  24.24364             16.68110
1477.42553  878.14362   188.00000  16.42278             15.00642
1475.64844  1728.78906  128.00000  14.65256             11.15181
1475.00000  1427.19277  83.00000   11.23605             9.37569
1476.66176  553.91176   68.00000   10.11701             8.59120
1482.96516  625.80488   287.00000  24.52476             15.11484
1487.55747  1030.55747  348.00000  31.58339             14.65283
1489.87077  684.10154   325.00000  30.78168             13.59798
1484.48529  1165.92941  340.00000  21.49888             20.74545
1482.10303  1490.80000  165.00000  18.07332             12.24843
1487.19529  582.13468   297.00000  26.57126             14.35214
1483.18713  1652.62573  171.00000  16.80233             13.08821
1487.05854  1525.07317  205.00000  19.57127             13.36780
1485.78125  748.15625   192.00000  16.70956             14.75243
1488.15556  480.81333   225.00000  19.08494             15.36903
1487.73563  826.62644   174.00000  16.13424             13.84859
1488.58650  515.64979   237.00000  18.69688             16.28720
1488.20833  1278.81481  216.00000  18.87807             14.64409
1486.55484  1320.83226  155.00000  15.91193             12.58017
1489.57436  1800.29231  195.00000  20.69229             12.31943
1489.78125  860.43229   192.00000  18.18954             13.69191
1497.46304  805.53307   257.00000  30.03650             13.77623
1490.63309  1501.92806  139.00000  14.70210             12.24098
1490.53896  1560.09740  154.00000  14.87070             13.26397
1496.34796  662.46395   319.00000  31.54217             13.11196
1493.70886  948.54430   237.00000  19.68033             15.49539
1496.76580  1747.94796  269.00000  22.10489             15.68555
1495.14953  301.42056   214.00000  20.68489             13.45307
1493.83193  1596.42017  119.00000  14.17398             10.77454
1497.92105  1639.18860  228.00000  21.14307             13.76317
1494.07273  926.69091   55.00000   9.30527              7.54734
1496.78756  637.43523   193.00000  19.23811             12.91933
1501.44776  739.70647   201.00000  21.22658             12.12579
1501.73711  502.26804   194.00000  18.21854             13.97843
1504.47253  1072.33333  273.00000  23.23651             15.17674
1505.15228  1312.67513  197.00000  19.19887             13.29491
1509.56703  1100.58462  455.00000  28.58435             20.84366
1507.36923  1555.14872  195.00000  19.31369             13.23225
1508.02674  956.03209   187.00000  19.65254             12.32953
1514.48125  623.85312   320.00000  25.04927             16.58715
1509.82353  1704.61176  170.00000  15.83129             13.78197
1513.29032  131.88710   248.00000  22.73732             13.91370
1512.27083  843.75833   240.00000  19.41831             16.02772
1512.50935  1230.10748  214.00000  23.04272             12.08174
1513.73298  1671.98429  191.00000  16.40737             14.84506
1516.82443  460.48092   262.00000  21.86878             15.37736
1514.26966  1600.79213  178.00000  17.02909             13.35505
1515.64968  355.98726   157.00000  19.66027             10.49558
1518.26214  1578.52751  309.00000  24.18481             17.89839
1516.50265  1652.14286  189.00000  18.48033             13.05796
1520.07512  563.25352   213.00000  19.49347             14.02994
1518.79487  636.96410   195.00000  18.42536             13.66248
1518.32000  787.42500   200.00000  19.19190             13.54778
1521.00388  949.50388   258.00000  20.17469             16.37984
1520.00000  1215.87135  171.00000  18.60764             11.80220
1520.59259  1485.54938  162.00000  18.63935             11.15341
1522.72857  751.97143   210.00000  20.08065             13.43465
1526.60000  1235.24186  215.00000  21.35462             12.95504
1521.16393  361.50820   61.00000   10.53342             7.46750
1529.13080  857.48101   237.00000  26.47308             11.54746
1526.22059  343.36029   136.00000  17.54082             9.89026
1529.37156  721.30275   218.00000  22.77761             12.34966
1531.37021  1294.57447  235.00000  22.87310             13.35104
1531.27356  1363.45289  329.00000  23.62488             18.20418
1532.62371  777.91237   194.00000  18.30305             13.67411
1529.95930  844.34302   172.00000  15.35062             14.46192
1533.70470  441.93624   298.00000  24.18146             16.10862
1536.76140  711.19298   285.00000  26.18230             14.09634
1530.83432  1205.44970  169.00000  15.60195             13.79495
1535.02335  538.56031   257.00000  20.39980             16.16017
1534.80374  1729.30374  214.00000  21.89560             12.47294
1540.92734  791.09689   289.00000  25.90786             14.28702
1537.84793  811.68203   217.00000  20.36742             13.65510
1537.17219  868.57616   151.00000  16.58784             11.71678
1540.21860  517.36744   215.00000  22.50828             12.25148
1539.34155  742.60211   284.00000  22.07117             16.47744
1539.67347  1479.66667  147.00000  15.57559             12.14925
1543.44538  1282.49160  238.00000  19.96831             15.23180
1545.41350  407.79747   237.00000  18.95441             15.95791
1550.92958  834.51761   284.00000  21.70948             17.39014
1545.72254  1644.45087  173.00000  17.77248             12.48080
1550.21811  486.26749   243.00000  25.71371             12.04970
1551.58000  764.81000   200.00000  19.19390             13.35793
1549.84507  1270.40845  213.00000  25.75075             11.50406
1551.55417  1582.56250  240.00000  20.72480             14.80000
1555.68551  582.94700   283.00000  21.53549             16.74613
1556.23188  995.67029   276.00000  23.43108             15.18893
1556.67416  295.14045   178.00000  16.95527             13.40254
1557.42085  362.71429   259.00000  22.18285             15.30630
1563.06294  1086.37762  286.00000  25.69641             14.70858
1559.78049  1494.35366  164.00000  16.71086             12.75374
1561.53629  634.06048   248.00000  20.15995             15.84644
1560.73684  1328.02429  247.00000  21.01816             15.25817
1560.03797  1681.25316  158.00000  15.01692             13.47385
1561.58730  1546.57143  189.00000  17.17943             14.11619
1563.15094  1647.52830  106.00000  12.62029             10.85635
1568.45374  1123.77533  227.00000  19.32231             14.98282
1569.10078  1188.67442  258.00000  22.33802             14.96220
1567.18590  1273.62179  156.00000  17.17764             11.68540
1568.56109  750.12670   221.00000  22.87240             12.49047
1568.87586  1152.30345  145.00000  16.97276             11.04593
1571.44030  476.17910   268.00000  22.05690             16.13462
1572.29442  617.35533   197.00000  18.46925             13.60231
1574.26236  1516.34221  263.00000  26.05228             12.92416
1575.37234  548.03191   188.00000  16.44845             14.64113
1580.73297  673.53406   367.00000  27.68530             17.11651
1577.73684  639.66917   266.00000  20.38943             16.79415
1576.93220  721.55932   236.00000  19.51516             15.45616
1577.74297  1020.53414  249.00000  20.28910             15.77195
1573.68116  1177.27536  69.00000   10.21784             8.62097
1583.52632  1167.02895  380.00000  28.95468             17.35336
1586.07082  909.55524   353.00000  27.62142             16.46901
1580.33728  1146.72189  169.00000  16.55843             13.13259
1582.00433  218.61039   231.00000  22.53495             13.45629
1584.60938  1547.86328  256.00000  19.86919             16.43662
1588.18153  778.97452   314.00000  21.47152             18.81159
1587.46311  1480.44262  244.00000  22.70093             13.96025
1588.24615  1379.45000  260.00000  22.60895             15.02854
1590.20259  438.18966   232.00000  20.37466             14.59285
1593.67568  1224.62500  296.00000  22.47726             17.14097
1594.28378  1287.15766  222.00000  18.68583             15.17705
1596.14695  473.34409   279.00000  27.55133             13.57113
1596.06452  105.94839   155.00000  15.74691             12.63597
1598.76707  1205.00803  249.00000  19.70702             16.74667
1597.95575  222.01327   226.00000  20.36985             14.28316
1595.92353  541.72941   170.00000  16.39298             13.31715
1597.23810  680.31905   210.00000  18.16425             14.79062
1594.46341  1163.08537  82.00000   12.45179             8.45275
1601.77049  716.61311   305.00000  23.87687             18.96559
1602.23938  1256.88803  259.00000  28.57574             11.94229
1604.29221  599.06494   308.00000  22.68076             18.03299
1599.22078  663.44156   77.00000   10.89664             9.08046
1601.57843  1518.78431  204.00000  18.04003             14.58138
1605.10092  1155.62844  218.00000  19.55618             14.42699
1605.47644  1745.25131  191.00000  18.39098             13.23167
1604.87681  1598.29710  138.00000  14.10397             12.61250
1606.02778  1764.37037  108.00000  13.95827             9.88059
1612.04264  1371.43023  258.00000  25.73871             12.91419
1610.71345  1034.37427  171.00000  17.02852             12.85437
1615.08475  1384.21186  236.00000  22.71216             13.80503
1613.39683  498.57143   252.00000  25.22915             12.91978
1612.90058  674.75439   171.00000  19.69854             11.32981
1611.81921  1084.09605  177.00000  16.32993             13.87460
1611.76289  1490.22680  194.00000  17.87682             13.94599
1619.48148  1528.59259  162.00000  17.05810             12.12037
1622.33784  649.90541   222.00000  18.98913             15.40686
1623.07727  703.44545   220.00000  18.37359             15.30345
1622.81553  1164.42233  206.00000  17.86721             14.71825
1624.53586  1573.79325  237.00000  21.14483             14.93748
1622.82969  1290.86026  229.00000  24.12685             12.14904
1623.64021  1307.67196  189.00000  18.08519             13.46485
1623.41860  1727.20930  215.00000  17.88051             15.47937
1626.06111  1594.45556  180.00000  16.79807             13.81948
1627.95023  519.81448   221.00000  18.57591             15.19144
1625.80874  1102.07104  183.00000  17.48172             13.64327
1630.17532  1209.53571  308.00000  22.99592             17.50622
1626.79842  1406.80632  253.00000  19.85095             16.34249
1624.84252  1684.14173  127.00000  14.21587             11.57897
1626.44030  739.53731   134.00000  13.80999             12.46411
1626.89552  1479.30846  201.00000  17.65095             14.54521
1631.75294  547.99216   255.00000  23.76661             13.96263
1631.72897  1798.49533  214.00000  21.31952             13.00048
1633.60714  779.51190   336.00000  24.55180             17.50849
1632.19231  1360.58547  234.00000  18.68640             16.09025
1634.58559  1768.76276  333.00000  22.87413             19.54858
1636.09756  1233.41057  246.00000  27.39240             11.87102
1637.68182  1342.59790  286.00000  23.28795             15.72257
1637.00627  437.13793   319.00000  27.05970             15.13515
1636.57471  1439.96552  174.00000  17.00110             13.11677
1639.97297  1304.03243  185.00000  21.70840             11.12791
1640.09732  664.24832   298.00000  29.29963             13.58806
1640.00985  1096.78818  203.00000  20.51332             12.70202
1639.66527  734.48117   239.00000  24.79620             12.37771
1641.60096  1130.75000  208.00000  18.63530             14.35354
1650.68259  1233.01365  293.00000  25.06151             14.99530
1649.14350  791.31390   223.00000  18.66263             15.48287
1653.37143  122.52571   175.00000  23.13713             10.43665
1655.54063  1036.35000  320.00000  30.23541             14.08664
1650.54545  1205.65000  220.00000  23.11865             12.43341
1654.23144  1169.84716  229.00000  22.42023             13.68381
1651.88889  1585.71528  144.00000  14.85834             12.53713
1656.00000  1335.27273  176.00000  18.57814             12.18901
1654.38333  1411.01111  180.00000  16.12488             14.33999
1656.28571  629.57143   315.00000  26.63532             15.51375
1656.30357  1746.35714  168.00000  18.54014             12.03508
1658.13587  1066.64674  184.00000  17.42860             13.44376
1657.06806  1292.25131  191.00000  20.76791             11.96622
1659.01961  1384.46078  204.00000  16.56198             15.72133
1659.22628  1184.55474  137.00000  15.51005             11.31379
1661.80392  1676.12255  204.00000  18.57458             14.25028
1658.41772  1693.00000  79.00000   11.83062             8.56422
1663.27178  359.19164   287.00000  22.28654             16.50068
1665.53476  316.76471   187.00000  17.10517             14.01775
1664.66450  471.30945   307.00000  23.62187             16.87750
1667.27667  572.52333   300.00000  30.01589             13.28657
1664.82632  1097.78947  190.00000  18.57796             13.05632
1671.93793  712.22069   290.00000  22.26858             16.90013
1670.96891  640.52332   193.00000  17.62689             14.02899
1671.48428  1563.27044  159.00000  15.60763             13.04207
1669.55000  1658.63750  80.00000   14.25318             7.24598
1673.82734  1132.28058  139.00000  15.77266             11.27633
1676.02825  1711.08475  177.00000  18.54980             12.35276
1677.86207  1080.70259  232.00000  18.60372             16.42882
1680.57778  688.84444   225.00000  18.77854             15.52068
1680.79710  1618.71981  207.00000  18.13400             14.67150
1681.70222  407.14222   225.00000  18.47032             15.61091
1684.31839  1113.23767  223.00000  19.28378             14.78319
1683.16596  1293.85532  235.00000  20.42764             14.79433
1687.18243  1198.52365  296.00000  25.63501             14.92801
1686.24126  539.94755   286.00000  21.54497             17.47285
1686.08780  1140.62927  205.00000  18.42625             14.75143
1689.07317  1057.91638  287.00000  24.87873             15.66374
1686.45161  1635.29032  124.00000  15.72911             10.27913
1690.16114  1582.63981  211.00000  17.08027             15.82819
1691.62637  495.05128   273.00000  23.68994             14.86342
1690.70940  1039.31197  234.00000  21.39098             14.09236
1692.90526  1524.20526  190.00000  16.38286             14.87085
1694.98936  554.92553   188.00000  18.15369             13.32617
1695.06806  1602.78010  191.00000  16.64875             14.62705
1694.63946  351.31973   147.00000  15.21706             12.38132
1703.10402  727.72813   423.00000  27.75221             20.74489
1697.21352  1250.96797  281.00000  21.60612             16.80416
1696.19298  1465.91813  171.00000  16.34611             13.47933
1700.48087  332.62295   183.00000  17.73309             13.30270
1701.20264  1281.30837  227.00000  20.94728             13.93195
1704.84513  1166.75664  226.00000  17.19752             16.86943
1705.51351  680.68468   222.00000  19.24007             14.98380
1705.36364  1033.44242  165.00000  16.46320             12.85374
1706.78774  1470.63208  212.00000  21.94013             12.64495
1708.26087  961.36715   207.00000  18.73631             14.38815
1711.53070  574.22807   228.00000  21.46721             14.10223
1715.03966  1018.01133  353.00000  26.12236             17.38019
1711.99448  1188.62431  181.00000  17.34336             13.37843
1713.41841  106.59833   239.00000  21.09948             14.68121
1717.53500  651.33000   200.00000  21.32507             12.09129
1717.59677  1088.86022  186.00000  16.79186             14.23992
1720.32773  990.19748   238.00000  24.53170             12.54857
1722.88806  867.20522   268.00000  21.68249             16.44470
1723.44395  1120.05381  223.00000  20.22573             14.30695
1726.45263  421.57544   285.00000  24.41109             15.05964
1727.84528  745.66038   265.00000  22.14590             15.37490
1726.70221  259.41176   272.00000  23.70048             15.39986
1727.10177  1167.38938  226.00000  20.42674             14.17643
1729.19122  897.61129   319.00000  29.37979             13.94955
1735.83784  936.93822   259.00000  21.25033             15.98901
1733.17413  641.33333   201.00000  17.98091             14.46891
1740.22744  1069.01444  277.00000  21.25880             16.83122
1740.80717  96.58744    223.00000  19.29755             14.79908
1742.78233  596.00315   317.00000  25.57654             16.06366
1743.59176  1116.52060  267.00000  19.02367             17.95197
1743.58120  1562.40171  234.00000  19.14093             15.70445
1743.03922  1683.92647  204.00000  20.23894             12.96450
1748.30055  415.30601   183.00000  20.89700             11.34747
1748.79412  964.65546   238.00000  21.51670             14.29581
1746.26554  998.35593   177.00000  17.84091             12.67739
1749.87449  1539.92713  247.00000  20.66342             15.29275
1753.50000  105.79500   200.00000  17.35013             14.69627
1757.10473  1580.92568  296.00000  24.75452             15.89080
1755.83523  1069.46591  176.00000  16.67268             13.47137
1761.24390  400.74634   205.00000  19.61032             13.40806
1762.51456  945.78155   206.00000  17.61215             14.94314
1769.43580  502.01556   257.00000  21.28185             15.89097
1771.12319  1047.64130  276.00000  23.86829             14.84227
1772.63927  1017.99087  219.00000  21.37623             13.09208
1771.80783  560.34520   281.00000  31.38513             11.55674
1772.37611  595.13274   226.00000  20.35591             14.26964
1773.04167  1595.87121  264.00000  19.24356             17.62225
1774.75355  87.25118    211.00000  21.49783             12.91659
1778.85759  758.33746   323.00000  22.38768             19.19433
1774.51316  986.13158   152.00000  15.01323             12.88846
1781.13137  925.31635   373.00000  26.24192             18.22511
1777.00571  966.98286   175.00000  16.59756             13.57946
1786.27303  872.26645   304.00000  25.23749             15.56661
1784.35938  893.12109   256.00000  20.87368             15.68202
1788.27353  516.97647   340.00000  23.18204             19.04975
1786.58824  1004.07059  170.00000  17.23441             12.62095
1789.21586  380.98678   227.00000  24.23203             12.04574
1791.30147  430.68015   272.00000  23.33838             15.05068
1787.87129  1589.38614  101.00000  12.28617             10.50334
1796.52381  936.88095   126.00000  14.00045             11.60757
1802.64706  445.97326   187.00000  16.34572             15.36960
1803.60920  910.19157   261.00000  22.31467             15.01129
1805.65217  929.63975   161.00000  15.90976             13.00015
1805.62500  76.71429    112.00000  13.38776             10.83962
1809.41485  1004.75546  229.00000  20.29658             14.49673
1810.78750  968.63125   160.00000  17.57619             11.63097
1812.09559  554.49265   136.00000  15.92371             10.93537
1819.58052  763.45318   267.00000  25.69437             13.32303
1817.85776  361.07328   232.00000  26.11048             11.36413
1818.82162  879.75135   185.00000  15.79559             14.90532
1833.14158  819.75986   558.00000  41.85465             18.38435
1823.30275  340.81193   218.00000  20.79665             13.49818
1824.24118  468.05882   170.00000  17.65493             12.51727
1830.16794  964.79389   262.00000  21.40353             15.68373
1835.54777  944.62420   314.00000  25.57298             15.88355
1838.41618  912.43931   346.00000  27.57871             16.46666
1836.17680  776.32597   181.00000  17.41448             13.35428
1841.24151  877.03774   265.00000  24.36143             14.00520
1836.53191  167.84043   94.00000   12.88282             9.66639
1842.29588  861.21723   267.00000  21.40565             16.08364
1851.70370  959.41204   216.00000  20.04287             13.79800
1855.64889  834.58667   225.00000  22.65775             12.76245
1857.74583  900.27917   240.00000  20.52052             14.94750
1864.79082  190.09184   196.00000  18.13926             13.91554
1868.94182  459.94545   275.00000  23.02919             15.36555
1867.29530  55.36913    149.00000  14.95680             12.72715
1869.66887  648.37086   302.00000  23.31178             16.72202
1882.14231  546.76538   260.00000  20.02004             16.67313
1880.62304  763.27749   191.00000  17.95787             13.69063
1879.68778  910.76018   221.00000  19.30147             14.59422
1884.34926  776.51103   272.00000  24.23003             14.36331
1887.35071  865.32227   211.00000  19.55501             13.81600
1889.80889  475.45778   225.00000  20.47885             14.20373
1889.99303  845.25436   287.00000  23.42566             15.62453
1894.64126  795.89238   223.00000  21.10355             13.53557
1898.86982  31.76331    169.00000  16.72060             12.94731
1901.50584  689.42802   257.00000  22.73994             14.82276
1911.63813  852.55253   257.00000  20.06593             16.49706
1908.00000  476.18085   94.00000   13.81675             8.79433
1913.73054  748.11976   167.00000  16.07887             13.23422
1917.46961  90.50829    181.00000  20.36199             11.44592
1918.37427  26.39181    171.00000  16.20625             13.52079
1933.23750  764.87500   160.00000  14.94190             13.66701
1941.62500  339.47500   80.00000   12.67378             8.55075
1952.47150  812.24093   386.00000  27.04042             21.43161
1971.92437  307.37815   119.00000  12.68550             12.27936
1996.15814  510.52558   215.00000  19.72412             13.90598
2001.63314  481.61538   169.00000  17.21211             12.49868
2035.85586  586.41441   111.00000  15.41947             9.59857