# Filename: Nuclei_416_bidi_60x_005.npz
# Voxel size (nm): (108, 108)
# Area quantity: voxels
# Num nuclei detected: 944
Y           X           AREA       MAJOR_AXIS_LENGTH    MINOR_AXIS_LENGTH
12.15306    875.46939   98.00000   13.22821             9.50468
107.89252   1430.42056  214.00000  21.60490             12.69515
112.02548   1759.81529  157.00000  15.17323             13.27202
139.01504   1822.94737  133.00000  17.04403             10.00348
152.04918   1829.22951  122.00000  15.10244             10.29493
166.23529   1824.73529  68.00000   11.66095             7.47647
191.45965   829.03509   285.00000  22.27980             16.64743
188.65753   1449.08904  146.00000  15.28287             12.28621
231.46988   799.24096   249.00000  19.40732             16.38894
241.05051   785.03030   198.00000  17.38617             14.56886
246.69302   1866.73953  215.00000  19.44285             14.11568
250.61404   1580.77193  114.00000  12.32086             11.86762
262.69963   1231.55311  273.00000  25.15771             14.05757
260.71123   618.64171   187.00000  15.97815             15.02246
262.42342   751.00901   111.00000  12.86685             10.97448
266.44444   1721.28889  135.00000  14.73159             11.69469
270.79221   1583.04545  154.00000  15.93464             12.32513
281.55497   745.87958   191.00000  16.98104             14.42267
286.48162   562.48162   272.00000  20.87782             16.69414
299.03285   728.00000   274.00000  18.86154             18.64983
300.02500   703.68125   160.00000  15.40976             13.27417
303.64120   660.82724   301.00000  21.08988             18.59201
308.98795   530.55020   249.00000  19.16233             16.59170
309.21739   629.42391   276.00000  19.93999             17.71874
312.75771   717.71366   227.00000  19.19425             15.23528
311.67532   608.92857   154.00000  15.75208             13.04438
316.35789   871.63860   285.00000  20.34633             17.91266
315.78713   1538.77723  202.00000  17.96263             14.55149
316.75785   767.52466   223.00000  20.32140             14.18120
321.51190   807.63095   336.00000  22.79770             19.07597
319.19328   287.93277   119.00000  13.01881             11.68459
323.14047   914.88294   299.00000  24.26727             15.75723
328.63743   1251.77193  171.00000  19.39342             11.40435
330.49498   851.48495   299.00000  19.62944             19.42154
334.92481   681.76692   133.00000  14.71427             11.55197
339.38983   556.92797   236.00000  18.45226             16.38052
343.08814   718.28475   295.00000  21.73517             17.43340
343.16580   672.06736   193.00000  16.90280             14.58655
345.92883   1005.50890  281.00000  19.93651             18.32306
349.49187   542.00407   246.00000  19.73095             15.92428
347.47674   1578.91279  172.00000  17.77984             12.44253
346.44444   800.18519   54.00000   9.93316              6.98099
351.01739   895.03913   230.00000  19.22494             15.30127
351.39286   1550.04464  224.00000  18.94942             15.06618
351.97647   649.53725   255.00000  23.88643             13.81089
351.97992   966.83936   249.00000  25.45563             12.73555
354.91538   826.77692   260.00000  20.88409             15.93031
355.70455   849.21970   132.00000  15.93320             10.87507
358.21603   878.06272   287.00000  21.82441             16.89444
358.03600   1048.03200  250.00000  22.02043             14.73797
362.70423   700.49296   71.00000   10.73115             8.43231
370.65990   537.79695   197.00000  19.02310             13.24648
368.35088   781.17544   57.00000   9.63023              7.58275
373.30493   1562.64574  223.00000  19.63646             14.52411
373.02206   968.19118   136.00000  15.54180             11.27625
374.71176   703.21765   170.00000  17.31358             12.53277
375.50877   1049.98684  228.00000  19.62244             14.86104
379.05056   1005.76966  178.00000  17.21583             13.20817
382.62288   589.60169   236.00000  19.46263             15.62003
379.22535   693.53521   71.00000   10.60096             9.04908
382.73077   1255.25000  208.00000  17.78553             14.96070
383.71186   643.26695   236.00000  18.69871             16.15470
384.67273   678.92727   165.00000  15.94290             13.19785
386.01485   1083.90099  202.00000  18.09403             14.26102
387.16279   659.80000   215.00000  18.91370             14.51923
392.82595   526.63291   316.00000  23.45405             17.27003
393.95390   1109.10993  282.00000  20.60153             17.56776
393.34831   747.25281   178.00000  16.01695             14.58333
395.31818   757.99091   110.00000  14.77293             9.51522
396.02679   1844.05357  112.00000  12.24241             11.76837
397.86010   544.95855   193.00000  16.82511             14.66499
398.38119   894.50000   202.00000  16.73947             15.45225
399.85792   568.28415   183.00000  16.86082             13.91935
397.67368   1632.13684  95.00000   12.48845             9.88425
402.22857   1012.27857  280.00000  20.50983             18.73150
398.77551   859.85714   49.00000   8.36103              7.63325
404.36271   1251.60339  295.00000  19.87781             19.01097
401.83036   668.65179   112.00000  13.76891             11.22571
404.17949   692.32051   156.00000  14.69305             13.61019
409.07299   599.12044   274.00000  24.18671             14.55018
409.64372   584.36437   247.00000  23.38046             13.52762
408.83951   851.52469   162.00000  18.47373             11.43002
413.44156   978.67965   231.00000  19.94625             15.11229
414.59887   755.80791   177.00000  16.02490             14.15066
418.08589   532.02454   163.00000  16.67858             12.48820
420.80653   706.94724   398.00000  25.14757             20.53068
423.45404   953.76323   359.00000  28.23492             16.71715
426.22756   844.44551   312.00000  22.71298             17.78542
419.72840   1814.88889  81.00000   10.72798             9.83201
423.40113   742.44633   177.00000  16.47628             13.76854
428.36759   494.75494   253.00000  23.75394             13.86878
425.36111   1494.46667  180.00000  16.48125             13.99833
422.56923   548.12308   65.00000   11.57709             7.39997
425.88835   1636.42233  206.00000  17.65930             15.04327
431.09836   972.41393   244.00000  20.19339             15.56855
430.98883   527.36313   179.00000  15.62245             14.65566
435.02848   636.13924   316.00000  24.52080             16.58051
430.30000   592.68750   80.00000   10.79999             9.55813
432.05172   1653.01724  58.00000   9.33229              7.96753
437.30769   537.63077   65.00000   11.28166             7.35770
443.16045   558.39552   268.00000  19.85236             17.29590
447.63675   682.71368   234.00000  25.45570             11.86548
442.21277   666.64894   94.00000   12.49683             9.58418
446.67073   928.11789   246.00000  20.37131             15.51172
448.71984   646.15953   257.00000  22.64338             14.52904
447.54091   1038.94091  220.00000  19.63578             14.28886
446.16216   1171.83243  185.00000  18.08781             13.13892
448.76884   900.67337   199.00000  19.82255             12.83846
450.01282   1184.79487  234.00000  23.28024             12.96626
446.77928   1222.46847  222.00000  17.45175             16.28053
451.64875   707.02509   279.00000  22.55952             15.88110
456.12027   989.18213   291.00000  22.19037             17.45039
457.19328   1022.40336  238.00000  24.88109             12.36352
451.36905   1698.73810  84.00000   10.80124             9.92637
453.87273   743.76970   165.00000  15.35469             13.80112
452.79389   756.18321   131.00000  14.83882             11.33651
462.78814   828.43220   236.00000  21.51055             14.40443
461.46053   1037.24342  152.00000  15.58644             12.66514
467.61667   495.35417   240.00000  25.29663             12.41192
468.17925   510.79245   106.00000  12.58094             10.76979
474.17910   584.85075   268.00000  22.17754             15.44380
476.25424   626.77966   295.00000  27.28422             14.08007
469.61472   1515.93939  231.00000  23.56118             12.58099
473.71569   1591.60294  204.00000  18.40000             14.16349
473.68108   767.71892   185.00000  16.96367             14.08015
475.30603   703.15948   232.00000  19.40404             15.33731
475.06356   942.97458   236.00000  19.35236             15.57881
478.77344   901.91016   256.00000  20.28958             16.48318
477.75969   861.79070   129.00000  13.78181             11.95092
475.69811   726.77358   53.00000   8.76463              7.69201
480.62343   960.17573   239.00000  19.06975             15.98038
481.50754   976.77889   199.00000  16.77002             15.22803
485.27972   1025.48601  286.00000  24.15589             15.22764
484.95146   669.22330   309.00000  24.09622             16.61674
482.39130   716.04348   23.00000   6.19388              4.66523
490.69780   838.97802   182.00000  21.04670             11.98380
491.69547   1042.68724  243.00000  19.62386             16.31995
491.97452   1658.69427  157.00000  15.02942             13.34975
498.92604   494.00592   338.00000  26.44532             16.86882
493.31795   923.45128   195.00000  16.60319             15.03472
492.54918   1717.13934  122.00000  13.05715             11.93895
496.48018   573.20705   227.00000  18.54585             15.68446
495.48696   948.20870   230.00000  19.93619             14.76559
496.98500   704.66500   200.00000  18.80192             13.78871
498.20741   731.77037   270.00000  19.94794             17.59671
494.80916   824.54198   131.00000  16.35324             10.40949
500.43191   630.41634   257.00000  19.25288             17.08312
502.39706   884.28309   272.00000  24.28754             14.42279
504.78088   672.31474   251.00000  19.85873             16.24595
510.85849   852.54403   318.00000  24.25900             16.75739
507.64126   1078.14350  223.00000  19.35762             15.01470
511.86765   1057.24020  204.00000  19.69483             13.21053
512.21229   757.58659   179.00000  17.68733             13.07110
510.73759   1706.66667  141.00000  14.93717             12.08193
518.34354   548.15306   294.00000  25.24009             15.08687
516.29947   799.56952   374.00000  26.31465             18.86387
516.37872   1539.40851  235.00000  20.24786             14.83540
517.03333   655.63333   180.00000  18.63434             12.31860
517.60510   1593.23567  157.00000  15.09896             13.29625
524.06569   521.29197   274.00000  23.84576             14.88023
529.60667   1609.45000  300.00000  31.75050             12.57738
526.21918   1578.09132  219.00000  20.15726             13.89909
526.88980   1117.44082  245.00000  18.97557             16.54344
527.63265   1140.16327  245.00000  21.21406             14.74956
530.81533   743.61672   287.00000  23.99049             15.34775
528.20305   823.74619   197.00000  18.48641             13.61822
529.41392   998.91941   273.00000  23.31669             15.12268
531.49458   716.83080   461.00000  26.27253             22.66752
531.54870   978.60714   308.00000  21.11148             18.61171
531.21774   560.98790   248.00000  22.72083             13.92039
531.29371   1879.51049  143.00000  14.30755             12.89370
537.76259   1074.27338  278.00000  22.71235             15.81666
536.01493   889.51493   134.00000  14.19076             12.13311
538.92308   901.47692   195.00000  17.56654             14.48645
547.73832   931.87850   214.00000  26.94889             10.64884
544.92218   519.38132   257.00000  19.75412             16.60918
546.57143   1063.56696  224.00000  25.23214             11.50961
545.47674   1123.16279  172.00000  17.52314             12.62500
548.45322   755.64912   342.00000  28.42183             15.85890
548.35938   992.18750   128.00000  13.81724             11.88297
550.56425   724.69832   179.00000  16.19593             14.10938
548.62500   697.91071   56.00000   10.31067             6.91983
555.03681   1584.19325  326.00000  23.73989             18.08419
557.29630   1055.84722  216.00000  19.07601             14.47457
554.21605   1139.71605  162.00000  17.14178             12.21713
557.26523   573.82437   279.00000  20.98710             16.97441
558.82569   942.79358   218.00000  22.45571             12.65653
557.41379   1175.68582  261.00000  21.85318             15.23321
558.37900   823.44292   219.00000  24.92724             11.23145
557.99537   971.22222   216.00000  19.44282             14.42481
561.76824   1646.58798  233.00000  19.81792             15.02732
561.53086   805.47325   243.00000  20.93785             15.09147
562.06944   885.59259   216.00000  20.03209             13.90648
563.72876   1010.61765  306.00000  24.62015             16.02302
557.18367   1624.10204  49.00000   9.59211              6.46650
566.80833   763.02500   240.00000  24.47393             12.90074
563.23333   1033.30667  150.00000  17.12972             11.27520
567.57383   1079.72148  298.00000  25.01257             15.20231
566.88142   737.68379   253.00000  21.51833             15.04954
571.32000   857.34000   300.00000  22.96857             17.03791
567.53125   1790.95833  96.00000   12.84690             9.63918
568.34722   842.93056   72.00000   11.00952             8.37363
578.16129   1222.00806  496.00000  34.84619             18.22538
570.77647   775.97059   170.00000  17.73961             12.25892
575.79032   1730.75806  186.00000  19.36348             12.34002
578.29231   831.21154   260.00000  26.95112             12.38796
582.78201   1032.11419  289.00000  26.32540             14.54397
586.51502   600.99142   233.00000  19.07360             15.79767
592.09510   698.35159   347.00000  22.73972             19.76050
594.24904   724.28352   261.00000  26.27025             13.21823
590.41985   973.63359   131.00000  15.62131             10.78513
592.49774   1677.61991  221.00000  20.39410             14.00306
592.69307   940.39109   202.00000  19.30539             13.70050
593.55365   1143.32618  233.00000  19.55465             15.25816
590.58209   1102.38806  67.00000   10.75505             8.05705
594.86826   907.26347   167.00000  16.50304             12.92207
597.87121   1087.77652  264.00000  23.23929             14.74299
598.98050   1181.86908  359.00000  27.71260             16.74316
601.24348   1013.72609  230.00000  22.59559             13.15274
598.34375   1725.47656  128.00000  13.46295             12.26171
606.58392   1591.26923  286.00000  26.88419             13.81684
604.68224   849.20093   214.00000  20.86540             13.19232
606.43946   962.73543   223.00000  20.24071             14.16955
610.12222   777.75926   270.00000  21.46321             16.44298
613.02110   997.11814   237.00000  23.03840             13.45997
614.96498   606.43191   257.00000  23.11117             14.41214
612.27861   836.69652   201.00000  17.06883             15.21681
616.94949   653.06061   297.00000  24.88805             15.63776
613.27451   1080.89216  204.00000  17.01439             15.44443
616.42912   1204.90421  261.00000  21.41219             15.62307
615.15385   1611.79487  117.00000  15.32127             9.78233
617.66327   1027.50000  98.00000   13.48420             9.41312
621.26923   723.61538   52.00000   8.84452              7.73216
628.02212   872.74336   226.00000  24.21390             12.24047
625.20833   1631.23148  216.00000  19.43908             14.20147
627.00485   1021.54854  206.00000  18.80792             14.01146
629.00840   663.65546   238.00000  19.92794             15.24374
627.32407   787.98611   216.00000  17.25283             15.99505
629.56233   907.27978   361.00000  26.75266             17.73865
627.66296   943.24444   270.00000  22.32834             15.54365
633.09050   1106.20362  221.00000  19.33259             14.66764
638.02312   864.31214   173.00000  18.35518             12.81684
634.06329   1012.68354  79.00000   11.11880             9.14979
637.78404   1747.75117  213.00000  17.27610             15.72673
638.36310   1866.90476  168.00000  14.94661             14.36137
636.80328   983.81967   61.00000   9.64308              8.19652
637.44776   1116.25373  67.00000   10.70364             7.99254
641.12335   1635.72247  227.00000  19.99150             14.61852
643.64777   1128.67206  247.00000  20.18055             15.72600
639.96629   1061.23596  89.00000   11.60766             9.77468
648.69231   967.23077   338.00000  27.06754             17.02449
647.13617   1208.09787  235.00000  22.98146             13.24139
652.82686   988.33569   283.00000  28.55537             12.97800
649.34615   1169.00549  182.00000  19.33804             12.01609
652.43522   780.47508   301.00000  25.43892             15.16554
648.59459   810.28829   111.00000  13.20840             10.80008
646.44118   1007.07353  68.00000   10.38675             8.38609
649.73958   923.89583   96.00000   12.03735             10.19854
652.91018   1025.13174  334.00000  24.11655             17.68716
652.00000   821.45098   102.00000  12.79281             10.17454
651.25694   1757.67361  144.00000  17.88798             10.52686
662.08411   853.88785   107.00000  13.31916             10.46603
664.31579   878.49474   190.00000  17.75328             13.75208
659.70886   979.26582   79.00000   11.08021             9.15176
661.03175   817.76190   63.00000   9.15400              8.80720
666.58523   892.72159   176.00000  17.82533             12.79529
661.03030   1232.57576  33.00000   7.50127              5.52572
663.40000   798.70000   20.00000   5.68832              4.60902
668.90456   1691.95436  241.00000  22.86236             13.49799
671.02105   788.66316   95.00000   11.59245             10.42482
671.89552   800.70149   134.00000  14.81250             11.53857
678.77857   845.62857   280.00000  33.34429             11.25906
676.51042   1064.44792  192.00000  21.22030             11.78928
675.77720   1743.81347  193.00000  17.88496             13.80321
677.04706   776.91176   170.00000  17.13134             12.91071
675.80645   1152.31452  124.00000  14.25914             11.60832
675.40972   955.61806   144.00000  14.94402             12.26969
684.54822   1001.09645  197.00000  25.81079             10.26515
683.45455   1116.80000  165.00000  19.27246             11.09282
682.59322   941.01130   177.00000  15.58084             14.55984
685.19617   1210.44019  209.00000  18.73801             14.36649
685.51827   815.57475   301.00000  22.68688             17.12960
683.55238   1942.22857  105.00000  13.55189             10.95270
688.71875   860.67500   160.00000  17.10924             12.06723
686.03390   1154.78814  118.00000  14.29595             10.87562
684.10000   318.20000   20.00000   5.44059              4.73286
695.21304   1102.85217  230.00000  22.55698             13.32740
692.84914   1229.42672  232.00000  19.98592             14.87102
693.54959   1758.88843  242.00000  21.31081             14.60186
693.26056   965.47183   142.00000  16.38471             11.12376
702.73529   1037.73529  272.00000  26.33715             13.24855
696.29851   1087.49254  134.00000  21.23303             8.95596
697.64000   856.50000   50.00000   8.16823              7.74638
706.11230   1219.57754  187.00000  23.62524             10.41128
702.73034   1787.21348  178.00000  16.09069             14.19786
708.96035   1056.73568  227.00000  21.10275             13.73050
707.35664   925.44755   143.00000  14.59830             12.54025
707.37288   878.81356   59.00000   10.62444             7.07357
716.38037   1076.06442  326.00000  29.65372             14.26458
711.04854   1230.87379  103.00000  12.79159             10.81374
712.17143   895.31429   35.00000   7.44650              5.94130
717.17986   1013.12950  139.00000  13.80595             12.84012
722.10458   947.76471   153.00000  16.10302             12.38271
725.67143   866.15000   140.00000  13.81659             13.01593
728.49805   1224.67315  257.00000  21.31981             15.37259
730.11000   1055.86500  200.00000  17.46226             15.09252
728.88235   926.49412   170.00000  15.66722             13.92453
735.04167   1186.11218  312.00000  23.98233             16.86152
730.48780   938.31707   123.00000  12.86785             12.42320
731.77844   879.53293   167.00000  16.43887             12.99204
734.34066   893.95055   182.00000  17.29812             13.68324
738.84906   766.91981   212.00000  22.43506             12.45568
735.48913   974.45652   184.00000  19.29337             12.87714
739.81150   1241.46965  313.00000  25.12294             15.96918
742.50685   921.37671   146.00000  16.10035             12.25027
745.41935   985.13262   279.00000  24.48683             14.96360
743.72603   1009.96804  219.00000  18.73374             15.76696
747.33574   1024.92780  277.00000  23.75054             15.01009
754.74744   1103.22184  293.00000  22.48609             16.66313
754.95425   924.22222   153.00000  15.14141             13.02709
759.06494   1253.35498  231.00000  19.14641             15.81351
762.84553   1178.42683  246.00000  18.36519             17.06730
762.69118   912.89706   68.00000   15.01207             5.84113
762.84768   950.97351   151.00000  16.44511             12.04449
766.35088   1053.80702  171.00000  20.16056             10.83060
763.11340   969.36082   97.00000   11.43409             10.83349
766.32850   1277.77778  207.00000  17.94796             14.72161
775.74131   1201.11197  259.00000  28.95738             12.62888
780.62469   1305.24198  405.00000  29.31326             17.70768
775.39370   923.67717   127.00000  13.72935             11.82496
777.83562   906.14384   146.00000  15.65138             12.02155
774.06383   947.46809   47.00000   8.69359              6.81672
779.57447   995.89894   188.00000  17.47317             13.78752
780.26344   1076.44086  186.00000  19.30780             12.73127
784.04583   1232.01667  240.00000  19.05508             16.29722
789.49677   935.10323   155.00000  16.18944             12.27648
791.03125   1334.04297  256.00000  19.04124             17.41619
793.05034   1355.40604  298.00000  22.91243             16.72577
795.51246   1280.97865  281.00000  22.83368             15.83796
795.66957   1187.57826  230.00000  18.38372             15.97561
799.67045   1235.56439  264.00000  19.11115             17.82888
803.11111   1055.72593  270.00000  21.93213             15.99852
801.17308   1012.94231  208.00000  18.47493             14.41121
801.34483   938.20690   116.00000  15.31237             9.82147
810.15772   948.62081   298.00000  25.76988             14.98657
810.84018   1295.31507  219.00000  18.26096             15.44801
815.58397   994.87405   262.00000  25.50459             13.74760
825.44224   1390.19142  303.00000  23.74303             16.73553
829.35135   1321.11969  259.00000  24.06993             13.74878
836.49071   1103.98885  269.00000  20.49111             16.77113
834.21053   1193.86842  152.00000  16.46013             11.98570
842.94551   1139.76603  312.00000  23.06804             17.71768
849.04926   950.15764   203.00000  21.55528             12.10616
846.13043   1191.33696  184.00000  19.05131             12.88081
850.58140   1334.83256  215.00000  20.19124             13.62356
852.00621   1181.67702  161.00000  15.52301             13.38025
862.05000   937.90000   20.00000   5.21536              4.79583
869.96364   997.64000   275.00000  20.28709             17.69430
878.35023   957.61290   217.00000  25.35281             11.23316
879.18129   946.29240   171.00000  18.56130             11.85757
895.18182   1369.76894  264.00000  19.85456             16.99165
895.01538   1178.67692  195.00000  18.08285             13.91672
898.51176   967.94706   170.00000  18.33513             11.99655
900.72642   1014.24057  212.00000  18.41982             14.73098
902.92000   1391.00500  200.00000  17.12808             14.88779
903.94944   1037.85955  178.00000  16.55232             13.80446
908.41722   1871.08609  151.00000  21.77161             10.08148
908.36207   1176.39080  174.00000  16.88898             13.27223
916.26286   986.86286   175.00000  15.61840             14.38279
929.19403   992.44030   134.00000  15.64764             10.98911
925.78571   1218.85714  70.00000   9.55585              9.37909
933.14510   1166.55686  255.00000  26.79177             12.57607
936.37662   1050.91342  231.00000  21.86810             13.55391
936.21762   1121.03109  193.00000  17.91162             13.90033
944.53363   1002.37220  223.00000  17.87562             16.11182
939.56000   928.92000   25.00000   6.22913              5.01975
952.91709   1110.33417  398.00000  28.13172             18.41007
973.91519   1421.34982  283.00000  21.65750             18.51606
973.22892   1582.86747  166.00000  17.15697             12.39660
974.73301   1551.23301  206.00000  22.20410             11.86157
986.78995   1538.31963  219.00000  19.79713             14.37265
998.56422   1481.80275  218.00000  19.34983             15.08558
998.52525   1457.22222  99.00000   13.70198             9.29108
1006.06667  1448.08667  150.00000  16.75579             11.61660
1019.49083  1431.33486  218.00000  19.20434             14.61442
1024.68072  1472.92169  166.00000  16.76419             12.63497
1033.86574  1490.40278  216.00000  22.76592             12.18436
1038.64050  1416.93388  242.00000  22.31387             13.94154
1042.88177  283.66010   203.00000  18.23627             14.18619
1046.10270  1512.31892  185.00000  19.10972             12.38944
1045.84426  1463.40984  122.00000  15.32906             10.17761
1058.42748  1518.08397  131.00000  15.47292             10.85059
1059.74324  280.46396   222.00000  20.77117             13.73973
1061.30049  1457.15764  203.00000  20.64119             13.05994
1067.47984  1435.89919  248.00000  23.58309             13.53100
1067.15169  1482.56742  178.00000  17.86515             12.76195
1070.10891  1516.60396  101.00000  11.94530             11.03893
1082.54327  1489.93750  208.00000  20.45029             13.21716
1087.44086  1456.54839  93.00000   11.40666             10.44129
1094.61569  1434.23922  255.00000  21.80697             15.12047
1094.47584  262.06320   269.00000  20.05174             17.24380
1104.25561  1561.39013  223.00000  20.03303             14.26478
1109.72414  1454.58621  29.00000   6.27895              5.81884
1122.14557  1561.01266  158.00000  16.29190             12.34338
1122.95652  422.95652   23.00000   5.95966              4.92422
1134.03704  1473.03704  162.00000  16.74365             12.36089
1138.97260  1583.26941  219.00000  20.00547             13.95870
1141.48583  1488.76518  247.00000  20.55981             15.47009
1154.07522  1630.52212  226.00000  19.78305             14.71865
1157.53942  1612.72614  241.00000  24.01198             12.87059
1157.70395  1506.34868  152.00000  16.22713             12.03792
1160.83133  1535.24498  249.00000  20.98962             15.28249
1169.60952  1492.21905  210.00000  25.53919             10.56543
1169.67442  1660.70349  172.00000  15.25740             14.43888
1176.41870  1601.01626  246.00000  25.40319             12.70038
1172.68519  1475.01852  54.00000   9.72993              7.07867
1177.88177  202.04433   203.00000  20.53368             12.63137
1181.66210  245.09132   219.00000  19.95689             14.14277
1186.41830  1678.91503  153.00000  15.10349             12.92622
1191.86250  194.31667   240.00000  21.67610             14.26090
1193.65865  1494.15865  208.00000  22.54349             12.54473
1199.50787  281.98425   254.00000  26.25961             12.54044
1204.97884  211.87302   189.00000  17.68295             13.66959
1205.57297  237.20000   185.00000  17.27633             13.85574
1206.26108  466.40394   203.00000  17.75538             14.93041
1212.52885  382.67308   208.00000  19.44392             13.74700
1215.90712  1627.57276  323.00000  24.33756             17.37563
1216.49133  217.76879   173.00000  16.38320             13.51108
1217.21888  332.83262   233.00000  22.23217             13.46051
1219.63500  1691.11000  200.00000  21.22078             12.22756
1222.59048  425.76190   210.00000  18.16186             14.74495
1222.33537  268.03659   164.00000  16.13830             12.95687
1224.82258  445.52688   186.00000  16.16088             14.66871
1227.96313  360.43318   217.00000  18.59025             14.94647
1232.71749  209.36323   223.00000  19.73059             14.44201
1233.44025  323.32075   159.00000  21.01332             9.89924
1235.12371  262.26289   194.00000  17.54304             14.12479
1235.54255  1731.02482  282.00000  23.32332             15.48684
1236.69540  185.93103   174.00000  17.03352             13.04544
1239.45882  310.11176   170.00000  17.25014             12.75077
1239.31481  1522.25309  162.00000  15.34846             13.54050
1246.36458  244.99653   288.00000  26.10577             14.31494
1249.94898  392.76020   196.00000  17.47781             14.31187
1253.68586  406.41885   191.00000  19.45423             12.60830
1251.48936  453.98936   188.00000  16.35255             14.71701
1254.82955  479.06061   264.00000  22.07940             15.32795
1254.93833  315.28194   227.00000  18.48900             15.78979
1255.93651  1197.56349  126.00000  13.39955             11.94986
1260.99563  443.87773   229.00000  19.87773             15.60284
1261.06343  290.53731   268.00000  23.36889             14.99710
1266.18077  270.41923   260.00000  22.59857             14.84900
1262.16535  1778.96063  127.00000  13.91592             11.81064
1268.01554  326.08290   193.00000  19.07862             13.02036
1269.13270  352.19431   211.00000  17.75123             15.21250
1268.05607  1187.22430  214.00000  24.20829             11.58231
1274.22182  434.26545   275.00000  33.75081             11.44285
1269.05755  1540.05036  139.00000  14.22242             12.83387
1280.36283  498.58850   226.00000  20.90091             13.94427
1279.31667  476.55000   60.00000   10.33843             7.39408
1286.81639  1227.90820  305.00000  26.08139             15.19637
1288.06849  370.95205   292.00000  22.18828             16.84925
1289.50562  1520.85768  267.00000  23.26969             14.80441
1290.62343  160.53556   239.00000  18.97598             16.12243
1290.76562  1294.05469  256.00000  23.69612             14.57540
1293.59524  477.08730   252.00000  24.03272             13.63478
1286.23810  1012.66667  42.00000   7.51555              7.21594
1292.02432  419.18237   329.00000  25.59248             16.77013
1293.13946  248.08844   294.00000  23.89753             15.85851
1294.39556  337.24889   225.00000  21.12559             13.73760
1295.58672  224.69373   271.00000  19.60288             18.05718
1296.33333  1812.40260  231.00000  20.83164             14.22061
1300.35474  977.53517   327.00000  22.04125             19.77651
1292.80597  1007.91045  67.00000   10.91318             7.80692
1297.17188  290.16406   256.00000  22.40456             14.78199
1300.17021  1197.17447  235.00000  22.77603             13.53812
1301.83929  1154.35268  224.00000  22.99944             12.60304
1312.26978  449.34892   278.00000  25.19139             14.26096
1310.47312  1294.88710  186.00000  16.86730             14.24098
1312.56522  294.09179   207.00000  20.09392             13.19466
1310.22430  509.28972   107.00000  14.61932             9.51420
1309.87429  1513.38857  175.00000  16.26587             13.91233
1311.48649  519.09459   148.00000  14.95927             12.73295
1313.18935  536.31953   169.00000  16.34318             13.75851
1319.06013  1427.46835  316.00000  24.94386             16.33226
1319.92429  1053.52366  317.00000  30.77682             13.25051
1317.82313  1397.78912  147.00000  15.96102             11.93775
1320.71138  128.10163   246.00000  18.49340             17.05586
1326.56134  236.07807   269.00000  25.27842             13.72363
1322.70159  1367.75238  315.00000  23.93845             16.84548
1322.06148  1259.84016  244.00000  22.29375             14.19634
1323.95210  309.63473   167.00000  15.67357             13.60610
1326.57358  977.81132   265.00000  19.86737             17.03440
1324.54589  349.73430   207.00000  19.88717             13.31281
1324.57222  1220.45556  180.00000  18.86541             12.32447
1325.29775  332.86517   178.00000  15.82160             14.38208
1328.26087  1079.32298  161.00000  16.20091             12.87937
1329.59302  1481.21318  258.00000  19.78277             17.18643
1331.12146  373.86235   247.00000  20.26923             15.59261
1330.38725  421.19118   204.00000  18.65376             14.02917
1330.54070  498.19186   172.00000  15.84405             13.85227
1329.09357  1061.52047  171.00000  20.45606             10.91377
1329.35915  1200.23239  142.00000  16.52660             11.17340
1332.19737  474.63158   228.00000  23.53479             12.44296
1332.27778  1209.41667  144.00000  19.70996             10.17375
1333.66013  513.33333   153.00000  15.64477             12.64837
1333.35948  535.86928   153.00000  15.84063             12.34425
1336.62573  295.62573   171.00000  16.88447             12.90267
1342.10280  1171.84735  321.00000  23.97770             17.45787
1340.81132  1268.88050  159.00000  16.75818             12.21301
1343.10526  1368.39912  228.00000  19.85580             15.12533
1342.91111  347.84444   225.00000  17.54583             16.46988
1347.63300  567.35017   297.00000  21.42160             17.70773
1343.83553  481.68421   152.00000  16.70874             11.68671
1347.47514  107.92818   181.00000  18.98628             12.15475
1348.37037  191.62140   243.00000  22.96589             13.97815
1356.36131  398.94172   429.00000  41.47811             15.09000
1346.40708  451.16814   113.00000  12.71227             11.39953
1349.01435  534.12919   209.00000  18.73875             14.25320
1348.78528  1033.57055  163.00000  15.91519             13.28128
1351.40794  231.72202   277.00000  23.84157             14.83040
1349.91775  320.54113   231.00000  19.78796             15.01191
1350.42289  1057.09950  201.00000  17.95172             14.36031
1349.67347  1413.29252  147.00000  17.47873             10.92168
1359.56132  1024.85377  212.00000  25.89946             11.71616
1353.72308  1202.34359  195.00000  17.93882             14.02436
1352.56725  253.35673   171.00000  16.21942             13.45092
1354.70213  1143.37766  188.00000  17.56780             14.19359
1355.71304  1435.46522  230.00000  22.76050             13.22305
1359.36644  1126.42123  292.00000  23.00652             16.80062
1357.02062  1161.53608  194.00000  20.17702             12.30516
1357.58491  1264.29717  212.00000  18.23360             15.11366
1359.41146  91.66146    192.00000  18.87610             12.99937
1358.57088  430.09579   261.00000  21.89818             15.25509
1357.59398  1099.84211  133.00000  14.22181             12.02741
1362.58678  299.87190   242.00000  21.85581             14.28136
1370.81193  511.17202   436.00000  29.69994             22.00902
1357.72632  1172.96842  95.00000   13.68283             9.06743
1360.73743  1222.38547  179.00000  19.90008             11.48879
1374.12112  967.90683   322.00000  35.69887             12.64516
1364.60177  347.38496   226.00000  19.45045             15.21969
1366.74638  175.27536   138.00000  16.08409             11.07753
1365.62252  1405.17219  151.00000  19.56318             10.05998
1367.53591  1293.24862  181.00000  17.04061             13.58543
1369.18519  381.27407   135.00000  14.80275             11.88783
1374.39894  84.23936    188.00000  17.98470             13.41571
1371.97917  466.62500   48.00000   8.66746              7.54663
1378.21327  1103.81043  211.00000  23.79263             11.68470
1379.68473  187.99015   203.00000  17.28510             14.96953
1378.40741  569.67901   162.00000  15.20696             13.72390
1379.03540  1186.66372  226.00000  19.20051             15.23118
1380.31461  309.25843   178.00000  16.60146             13.75990
1380.34483  536.88276   145.00000  14.43637             12.83556
1382.14208  250.39891   183.00000  15.93350             14.66112
1381.46409  1161.57459  181.00000  16.65146             13.94109
1381.98802  1206.22754  167.00000  15.30163             14.01964
1382.58730  141.78307   189.00000  19.52749             12.43834
1386.35786  1328.15719  299.00000  24.11364             16.09694
1387.37920  1059.85321  327.00000  24.30777             17.93236
1387.76404  605.04494   178.00000  17.65489             12.94455
1390.98214  174.32143   224.00000  21.75628             13.16946
1389.86869  231.71717   198.00000  17.02849             14.84295
1389.48387  1288.65591  186.00000  17.15785             14.91517
1389.27132  1388.52713  129.00000  13.88449             12.06380
1390.37500  334.92763   152.00000  14.52311             13.52612
1391.01667  1343.80833  120.00000  20.51631             7.65652
1394.15225  574.25606   289.00000  21.87569             17.76839
1392.20856  1131.98930  187.00000  17.75923             13.58426
1397.03125  1231.82143  224.00000  23.78450             12.25854
1395.70751  277.27668   253.00000  21.52698             15.17498
1396.26705  297.21023   176.00000  22.18864             10.49666
1393.81776  316.62150   214.00000  23.37339             11.92897
1396.68908  1191.90336  238.00000  20.31274             15.11910
1399.64576  1397.44280  271.00000  20.72115             17.51578
1400.30315  519.04331   254.00000  18.30776             17.80258
1398.52841  539.52273   176.00000  16.33576             13.73231
1403.15337  485.92025   326.00000  21.46820             20.13422
1400.25984  1038.33071  127.00000  18.86382             8.76663
1406.73832  195.79439   214.00000  17.02738             16.06637
1405.62048  1131.96386  166.00000  15.71608             13.63305
1408.81000  1089.71500  200.00000  17.92312             14.27181
1413.00383  1009.66667  261.00000  22.96638             14.67480
1411.27168  1329.32370  173.00000  18.45346             12.01972
1412.56962  414.16456   158.00000  16.26714             12.42837
1419.58356  1041.78630  365.00000  27.75950             17.65042
1414.18841  247.44203   138.00000  15.47023             11.40014
1412.42353  337.18824   85.00000   12.24246             8.88636
1412.14894  1317.10638  47.00000   9.14871              6.51179
1417.08562  218.48630   292.00000  23.17448             16.14748
1417.04472  1222.86179  246.00000  22.17820             14.24813
1417.49010  1364.10396  202.00000  19.49697             13.39169
1421.27237  161.98444   257.00000  21.33533             15.41191
1420.82609  983.93789   161.00000  17.71476             11.56894
1421.89873  1350.57595  158.00000  21.18370             9.57619
1420.28916  501.36747   166.00000  15.37329             13.87274
1426.02721  1255.12018  441.00000  28.84804             22.64708
1420.72327  260.85535   159.00000  15.11356             13.60568
1422.78846  1166.00385  260.00000  28.92624             12.86028
1425.66667  336.69945   183.00000  23.06606             10.21686
1425.67407  1076.94074  135.00000  14.74566             11.71808
1428.25391  1452.41797  256.00000  21.98255             15.98643
1426.98473  198.13740   131.00000  14.66436             11.55314
1428.58407  1114.96903  226.00000  27.15177             12.53802
1432.95528  1062.04065  246.00000  25.90319             12.28353
1429.02586  246.68103   116.00000  13.63064             10.96145
1433.27397  1160.78082  146.00000  15.22795             12.36889
1434.84722  355.29630   216.00000  19.44067             14.20175
1433.55963  471.47706   109.00000  12.63856             11.09010
1434.90361  555.09639   166.00000  15.86934             13.36103
1438.03933  1348.41011  178.00000  19.38714             11.86565
1439.48016  1119.35317  252.00000  19.83292             16.62145
1439.07471  1377.00575  174.00000  17.56870             12.79494
1440.59091  314.38384   198.00000  17.27189             14.68044
1442.08163  1240.56463  147.00000  14.13914             13.26418
1445.40892  474.02974   269.00000  20.66130             17.11315
1442.69697  1361.15152  99.00000   12.18012             10.38793
1443.01299  1409.25325  154.00000  17.26826             11.38234
1447.66923  1302.96154  260.00000  22.53298             14.97993
1448.11561  1005.39306  173.00000  19.72052             11.33816
1451.42475  566.34448   299.00000  21.35725             18.55028
1451.18878  1092.16327  196.00000  16.65965             15.24461
1453.93750  1159.49632  272.00000  24.33870             14.51896
1455.09141  406.08864   361.00000  21.91526             21.13548
1450.90860  1143.06452  186.00000  18.58584             12.90164
1453.62782  225.83083   266.00000  20.15622             16.97277
1457.05907  343.08861   237.00000  20.31387             15.19024
1453.63291  1228.53165  158.00000  14.63156             13.84905
1457.45909  266.53182   220.00000  24.10611             11.73410
1455.84360  1206.62559  211.00000  20.64189             13.29856
1457.72683  1422.67317  205.00000  24.90219             10.61073
1458.63736  1132.73626  91.00000   13.34980             8.72630
1463.03084  985.82819   227.00000  23.21641             12.84264
1460.96988  1476.90361  166.00000  17.26743             12.32435
1462.42941  240.42353   170.00000  16.47489             13.18573
1464.07203  277.43644   236.00000  21.76087             13.98589
1465.76596  193.81915   188.00000  15.85875             15.16555
1464.50000  394.70833   96.00000   11.86030             10.32661
1467.46544  323.29493   217.00000  23.94400             11.70932
1467.53448  1208.92241  116.00000  13.79955             10.72904
1470.84768  993.15894   151.00000  18.34196             10.75012
1467.54190  1092.17318  179.00000  17.82257             12.92323
1474.08483  531.97172   389.00000  26.06674             19.63487
1470.97059  646.03268   306.00000  26.86095             14.67293
1470.85294  595.02941   136.00000  13.95446             12.50770
1471.54098  622.53005   183.00000  17.38908             13.74412
1471.95513  255.44872   156.00000  15.56031             12.83655
1473.43913  294.29130   230.00000  22.70071             13.00802
1478.23755  1098.81992  261.00000  23.77791             14.44323
1473.71875  1255.17188  128.00000  14.18860             11.48675
1474.04070  1464.53488  172.00000  16.69791             13.10491
1473.60526  345.71053   114.00000  17.35114             8.57265
1476.56585  1155.69756  205.00000  20.13878             13.24364
1477.56875  504.80000   160.00000  16.95274             12.01204
1478.48780  405.66341   205.00000  18.52511             14.32720
1475.84444  1170.55556  45.00000   8.87280              6.46643
1483.47442  1362.49302  215.00000  25.70704             11.26477
1480.65441  166.35294   272.00000  25.57076             13.83505
1480.65101  1306.46980  149.00000  16.08449             11.80477
1478.89630  1482.72593  135.00000  15.55886             11.16010
1483.15000  1032.36667  180.00000  19.98173             11.60447
1480.12676  427.68310   142.00000  15.48520             11.70679
1480.14286  1530.75630  119.00000  14.11092             10.85002
1481.27737  193.22628   137.00000  16.02215             10.90033
1481.37748  323.48344   151.00000  17.53291             11.38874
1484.79902  1071.81373  204.00000  22.42121             11.87557
1484.48864  40.99432    176.00000  16.34190             13.95231
1482.10687  1543.62595  131.00000  14.48860             11.56177
1486.13475  1057.00709  141.00000  17.32546             10.41641
1488.39378  228.37306   193.00000  18.43141             13.35487
1490.21763  613.04959   363.00000  25.20264             18.44468
1494.80171  1258.64179  469.00000  31.83078             19.94191
1489.46243  678.23699   346.00000  28.90092             15.45908
1490.00578  1340.62428  173.00000  17.28916             12.74944
1492.73145  203.76678   283.00000  20.98774             17.56823
1491.06878  1020.57143  189.00000  17.21679             14.16742
1491.10112  1231.24157  178.00000  19.84869             11.56465
1492.58791  1324.35714  182.00000  20.67193             11.57874
1490.49074  317.67593   108.00000  13.48269             10.32519
1491.95706  1503.82209  163.00000  16.57622             12.66194
1498.34579  1124.81931  321.00000  24.54184             18.12447
1493.95977  1612.77011  174.00000  16.10749             13.78318
1493.78289  348.96711   152.00000  16.28579             11.93410
1498.15525  399.69863   219.00000  18.95313             14.76512
1498.13978  419.17204   186.00000  18.43433             12.97276
1497.21287  79.81188    202.00000  18.89711             13.64414
1494.81651  304.74312   109.00000  12.97129             10.74752
1500.21184  710.51402   321.00000  21.84803             19.05849
1497.07254  1553.38342  193.00000  17.90446             13.75353
1496.05960  1598.16556  151.00000  16.54789             11.84012
1499.09259  28.35185    54.00000   11.78833             6.25024
1501.54878  287.03049   164.00000  21.00274             9.97571
1506.13063  977.86486   222.00000  23.17487             12.35874
1507.59091  1460.22378  286.00000  26.03518             14.84764
1503.69655  1493.55862  145.00000  15.51598             11.98916
1505.03187  1439.90040  251.00000  22.52612             14.24209
1507.74667  1172.28889  225.00000  17.79505             16.32492
1509.53727  1389.56832  322.00000  21.30738             20.34023
1507.09859  43.94366    142.00000  16.37399             11.14672
1511.06051  746.45541   314.00000  21.31213             19.79245
1512.61392  1188.19937  316.00000  23.33692             17.48381
1507.05051  313.13131   99.00000   12.28078             10.61241
1514.22925  1321.10672  253.00000  27.44927             12.15628
1516.27119  1506.96045  177.00000  22.14524             10.69993
1512.34161  172.27329   161.00000  19.32699             10.97264
1511.33333  1120.66667  135.00000  14.04344             12.59264
1514.83425  430.17680   181.00000  16.66924             13.98986
1519.61324  1137.17770  287.00000  28.24300             13.03516
1516.88034  472.57265   234.00000  19.62365             15.52282
1516.86243  231.96296   189.00000  17.19990             14.03426
1517.36806  280.84722   144.00000  13.94255             13.21859
1518.27273  490.92929   198.00000  17.11218             14.78889
1515.43284  313.07463   67.00000   10.29556             8.33917
1518.56376  1221.42953  149.00000  15.38279             12.37246
1519.34000  1071.45000  200.00000  20.07229             13.01128
1519.51429  1113.26667  105.00000  14.21876             9.76680
1524.58264  1237.99174  242.00000  18.73832             16.94341
1527.33333  377.26357   258.00000  25.77484             13.12762
1528.34897  778.75073   341.00000  23.53500             19.28988
1523.04878  1448.11789  246.00000  23.57981             13.72051
1523.40278  348.66667   144.00000  15.74697             11.65683
1530.10895  982.19066   257.00000  20.11307             17.43516
1529.72881  955.31780   236.00000  25.81346             11.83323
1532.92565  1027.25279  269.00000  26.53407             13.07996
1529.21244  1272.22798  193.00000  16.69523             14.82770
1533.32692  430.12981   208.00000  17.94631             14.91090
1532.82639  262.12500   144.00000  14.52950             12.68617
1532.65493  445.57746   142.00000  14.72781             12.31363
1533.47768  1294.50000  224.00000  19.32324             15.04864
1540.87333  1158.66000  300.00000  27.32839             14.24592
1538.78977  1044.60227  176.00000  20.74060             10.85224
1538.36416  1062.02890  173.00000  20.07957             11.41719
1536.89595  182.50867   173.00000  17.71586             12.45697
1538.61977  1366.46008  263.00000  21.96846             15.49066
1540.15837  1098.38914  221.00000  22.52215             12.90870
1541.27596  949.26230   366.00000  29.57830             16.02070
1538.32468  343.22078   77.00000   11.27326             8.67929
1539.20482  1390.12048  83.00000   11.24805             9.37567
1539.66234  195.63636   77.00000   11.27419             8.73666
1542.25893  1331.14286  224.00000  20.86354             14.01120
1541.89600  317.45600   125.00000  12.90413             12.37156
1541.45872  1078.18349  109.00000  13.17687             10.56593
1544.07947  1287.09934  151.00000  18.28018             10.53218
1548.59574  1437.13191  235.00000  19.94690             15.37871
1545.92000  612.02000   50.00000   8.76167              7.21695
1549.20635  1198.42328  189.00000  17.55010             14.05287
1551.34507  257.15493   142.00000  15.78645             11.57427
1551.63985  410.54789   261.00000  20.71141             16.09807
1552.90995  1537.44550  211.00000  19.82571             13.63005
1552.78358  1019.79851  134.00000  17.38661             9.83791
1552.40437  298.51366   183.00000  17.41059             13.42296
1555.35573  459.01976   253.00000  18.77759             17.26140
1555.10759  279.18354   158.00000  14.93974             13.48150
1562.70863  1228.91367  278.00000  24.08524             14.77722
1561.62022  517.60383   366.00000  28.13548             16.97030
1562.85635  231.01657   181.00000  17.83021             12.98291
1563.76471  1405.16863  255.00000  20.30288             16.82963
1563.34529  117.98206   223.00000  17.96903             15.85159
1563.22460  479.44385   187.00000  16.26799             14.70031
1565.24896  1039.92531  241.00000  25.75971             12.55640
1562.64486  1180.91589  214.00000  18.35429             14.92592
1561.79661  77.56780    118.00000  14.20647             10.56778
1564.06154  205.57692   130.00000  15.08627             11.03853
1564.10050  422.88945   199.00000  18.60999             13.69902
1568.78689  1116.26230  244.00000  22.19329             14.56442
1572.05882  248.92157   204.00000  19.56184             13.75715
1575.27536  1135.83575  207.00000  20.87497             12.74657
1572.24476  169.87413   143.00000  14.61365             12.49553
1573.29804  374.64314   255.00000  22.73201             14.65796
1574.98477  310.63452   197.00000  21.86186             11.56923
1579.93548  988.39427   279.00000  29.62222             12.16019
1576.67416  1046.37640  178.00000  16.86147             13.58764
1579.82474  394.82474   291.00000  26.10544             14.32745
1580.99548  61.59276    221.00000  20.38452             14.17372
1579.15337  438.74847   163.00000  14.97015             13.95094
1581.25758  1065.37500  264.00000  19.32253             17.52560
1585.43519  1381.96759  216.00000  22.35024             12.62615
1584.21384  182.87421   159.00000  16.33795             12.45514
1583.55556  347.41975   162.00000  15.29273             13.55937
1582.87778  218.61111   90.00000   11.14600             10.48370
1586.18841  477.33816   207.00000  17.77659             14.90877
1588.67005  1364.72589  197.00000  23.79056             10.79196
1591.60417  1545.89583  192.00000  30.01806             9.87768
1589.82143  317.84524   168.00000  17.42060             12.42925
1589.74731  365.56989   186.00000  17.75191             13.38697
1590.52663  1157.69231  169.00000  18.51296             11.87727
1599.31858  1003.91445  339.00000  25.52905             17.44984
1595.57746  1104.05164  213.00000  22.06111             12.89410
1595.69469  1176.05310  226.00000  22.86146             12.83502
1594.42021  1077.92021  188.00000  17.18760             14.04096
1595.07634  1114.72519  131.00000  14.71398             11.63694
1596.39333  282.58000   150.00000  16.15205             11.96663
1602.52941  536.76817   289.00000  29.53383             13.27798
1599.23364  1123.54206  107.00000  14.12182             9.81367
1595.89130  153.52174   46.00000   8.94154              6.56937
1599.91228  1202.45614  228.00000  24.58482             11.89992
1599.45652  189.81522   92.00000   12.30249             9.64064
1603.61856  418.08763   194.00000  18.00863             13.77587
1604.81250  1028.13487  304.00000  25.06189             15.88763
1599.65041  1146.68293  123.00000  15.21882             10.36618
1603.99490  1272.32653  196.00000  17.13783             14.71417
1607.27389  228.84076   157.00000  15.96923             12.55162
1610.39130  428.73913   184.00000  18.29671             12.84508
1609.96809  1160.95213  188.00000  15.74303             15.27680
1612.90336  354.70168   238.00000  19.05707             15.92507
1612.85714  1258.57635  203.00000  18.56110             14.25287
1615.19824  1550.71366  227.00000  21.20952             13.75509
1616.84286  156.47143   140.00000  14.93374             11.96200
1617.80488  267.95122   82.00000   13.24998             8.20384
1621.72330  298.26214   206.00000  18.85541             14.00602
1623.14740  454.90751   346.00000  22.54965             19.66717
1620.64126  1076.62332  223.00000  18.48431             15.45168
1621.29091  1052.29091  110.00000  16.25118             8.76098
1622.59574  403.95745   141.00000  14.49373             12.42498
1624.01948  1027.20779  308.00000  22.77969             17.45567
1629.60662  24.02574    272.00000  23.72255             14.84988
1625.74265  255.44118   136.00000  16.29516             10.72928
1624.43506  1262.33117  154.00000  17.25479             11.49741
1625.80000  210.57273   110.00000  14.09420             9.98051
1629.91371  1278.11168  197.00000  17.35861             14.57362
1629.90345  431.27586   145.00000  16.50633             11.40335
1636.38592  508.48169   355.00000  24.45535             18.63538
1633.79290  333.07692   169.00000  19.32310             11.39667
1638.97428  557.82637   311.00000  23.12533             17.35370
1637.66509  1570.21698  212.00000  20.83302             13.03853
1635.89655  180.01379   145.00000  16.10778             11.63140
1642.57550  1185.32194  351.00000  27.37888             16.71882
1638.06780  239.52542   59.00000   9.02738              8.26564
1642.44493  1127.45374  227.00000  17.47337             16.69127
1642.75899  1211.98921  278.00000  23.30320             15.22307
1644.75824  1268.33516  182.00000  20.97854             11.23492
1645.04955  326.22072   222.00000  20.80562             13.86294
1642.24242  1076.23232  99.00000   14.36153             8.91391
1645.02128  111.53901   141.00000  16.51857             10.94339
1652.45960  433.32828   198.00000  17.09663             14.90629
1649.40625  183.37500   64.00000   9.92213              8.22562
1648.94118  1033.43137  51.00000   8.91559              7.51398
1658.60571  1223.98286  175.00000  16.91424             13.22722
1658.88095  1077.69048  126.00000  15.63185             10.58210
1661.01667  1305.87917  240.00000  20.49521             14.99472
1662.49020  1262.81373  204.00000  20.14754             12.97472
1663.78548  1112.66007  303.00000  32.49436             12.14054
1668.26697  432.15837   221.00000  18.95662             14.94033
1669.26087  244.78261   207.00000  16.75233             15.78196
1673.14458  1034.22088  249.00000  21.75703             15.17312
1674.50763  1336.46183  262.00000  19.69793             16.98668
1675.81579  1150.55639  266.00000  23.66251             15.06088
1677.17098  295.51295   193.00000  18.47947             13.52439
1679.78261  115.98261   115.00000  14.16184             10.69431
1683.48525  1057.58033  305.00000  20.95942             18.58518
1681.42636  1134.24031  129.00000  14.15012             11.61010
1685.34538  1219.86747  249.00000  23.57296             13.71444
1687.14338  220.26103   272.00000  20.18358             17.26006
1697.10169  70.06780    177.00000  17.54852             13.03850
1694.09639  28.31325    83.00000   10.89083             10.02930
1696.07383  150.73154   149.00000  14.26236             13.39597
1695.05660  234.30189   106.00000  12.33334             11.00437
1698.17436  190.65128   195.00000  16.71768             15.17403
1698.07429  1219.46857  175.00000  16.23726             13.75692
1702.46823  440.19064   299.00000  20.94530             18.55268
1700.89431  364.80894   246.00000  24.91221             12.82090
1700.85646  1257.24402  209.00000  21.31944             12.61001
1701.40000  316.56000   150.00000  15.77106             12.16400
1704.74737  1129.05263  190.00000  17.22723             14.11268
1713.95349  1239.54522  387.00000  32.54120             16.18021
1706.82407  1291.11574  216.00000  20.71363             13.48026
1709.65587  92.35223    247.00000  19.39582             16.24619
1713.35563  1157.48592  284.00000  23.84267             15.38543
1716.60274  177.94521   219.00000  17.17300             16.45733
1717.17391  1113.70807  322.00000  29.08579             14.16742
1719.08120  269.29487   234.00000  20.25844             14.75023
1721.67213  472.55328   244.00000  19.19688             16.89727
1724.07395  1026.48553  311.00000  25.31935             16.30292
1717.18293  319.62195   82.00000   11.17083             9.41199
1723.00987  1323.09211  304.00000  23.75698             16.53847
1725.92857  40.33571    140.00000  14.53089             12.28691
1730.75652  242.99130   115.00000  14.12139             10.44997
1736.06734  1102.73401  297.00000  20.47421             18.59056
1736.30890  1353.22513  191.00000  18.34960             13.43480
1739.61404  205.19298   228.00000  18.79674             15.47556
1742.43750  155.50481   208.00000  16.82191             15.76873
1743.76235  489.56481   324.00000  23.20691             17.98557
1747.61491  90.74534    161.00000  16.04940             12.85466
1753.95098  1428.90196  204.00000  19.27823             13.67123
1755.28022  1400.71978  182.00000  18.28913             12.74110
1758.11475  30.65574    122.00000  14.15560             10.94864
1765.84028  93.28472    144.00000  14.39463             12.96921
1778.77241  422.37931   290.00000  20.77435             18.00993
1777.77670  148.16505   103.00000  14.88178             8.99071
1782.90323  344.22043   186.00000  20.12657             11.84553
1783.05333  12.70667    75.00000   10.62840             9.37310
1787.46825  277.11111   126.00000  13.79493             11.66301
1794.86567  406.15920   201.00000  17.47847             14.69415
1798.24280  457.18107   243.00000  19.91865             15.63583
1809.53293  75.05988    167.00000  16.08566             13.35030
1814.53488  19.91473    129.00000  14.30024             11.52765
1825.51875  482.69063   320.00000  25.00253             16.34278
1826.05128  299.71795   195.00000  20.43026             12.19993
1825.67424  381.10227   264.00000  21.17875             16.04412
1838.77863  399.22901   262.00000  24.60441             13.65299
1845.93237  449.61353   207.00000  16.51076             16.02246
1847.27344  495.85938   256.00000  20.01133             16.51239
1846.13021  377.47396   192.00000  18.48389             13.27203
1853.75092  112.02198   273.00000  27.29221             13.22374
1865.23295  513.78125   352.00000  24.36611             18.44339
1861.05172  380.85345   116.00000  13.92528             10.77882
1862.69912  151.67257   113.00000  14.33721             10.14528
1865.59804  457.79412   102.00000  15.04489             8.87581
1868.81159  443.89855   138.00000  16.88630             10.60646
1873.99638  529.74638   276.00000  19.87872             17.95755
1871.48649  472.56757   74.00000   11.99956             7.84578
1875.66429  173.55714   140.00000  15.81826             11.33572
1876.11696  486.16374   171.00000  16.44308             13.26807
1881.46108  580.22754   167.00000  15.47784             13.89233
1883.43781  188.33831   201.00000  17.24885             14.92092
1891.32432  546.51014   296.00000  20.99541             18.03286
1892.12676  469.12676   213.00000  19.48787             14.36054
1889.50000  503.90541   74.00000   10.53803             8.91074
1897.22872  416.44681   188.00000  19.43132             12.36712
1894.76048  575.71257   167.00000  16.95861             12.57640
1898.15789  178.04737   190.00000  16.00322             15.14175
1904.86283  603.12832   226.00000  18.09130             15.96674
1913.45930  639.80814   172.00000  16.96033             13.02276
1919.17766  226.14213   197.00000  19.17509             13.08991
1922.28846  663.50962   208.00000  19.47630             13.75454
1924.11299  242.76836   177.00000  17.32571             13.06567
1922.17105  335.68421   76.00000   10.32290             9.36990
1926.83607  416.83607   122.00000  17.86490             9.66242
1931.09524  66.23810    105.00000  12.72220             10.74678
1936.12214  454.85496   262.00000  21.47701             15.69834
1940.75000  549.42500   200.00000  17.52719             14.85489
1941.00505  231.30808   198.00000  18.00664             14.07266
1944.26087  257.64783   230.00000  19.77260             14.89402
1951.56000  64.13333    150.00000  15.30488             12.54879
1954.85593  484.43220   118.00000  17.34668             11.38728
1956.40237  454.03550   169.00000  16.81948             12.87297
1958.56614  291.85714   189.00000  17.54674             13.79100
1966.37500  566.82212   208.00000  18.76975             14.30768
1966.03371  581.67416   89.00000   12.20095             9.27384
1971.98374  409.47154   123.00000  15.46034             10.24662
1977.49626  598.47382   401.00000  29.01321             18.35907
1997.54307  623.66667   267.00000  21.35116             16.34868
2013.78571  670.02381   168.00000  15.45865             13.87360
2016.86792  741.47925   265.00000  19.57462             17.31280
2018.77739  776.11661   283.00000  22.05745             16.47117
2028.83019  702.89937   159.00000  15.50885             13.10469