# Filename: Nuclei_416_bidi_60x_012.npz
# Voxel size (nm): (108, 108)
# Area quantity: voxels
# Num nuclei detected: 826
Y           X           AREA       MAJOR_AXIS_LENGTH    MINOR_AXIS_LENGTH
50.63592    608.12621   206.00000  20.46708             13.04527
74.13636    550.32323   198.00000  18.27907             13.82675
98.03086    909.35185   162.00000  20.22868             10.38825
137.22905   914.50279   179.00000  17.89098             12.77351
155.83429   1008.44571  175.00000  18.19731             12.30308
161.48760   1042.84298  121.00000  13.41936             11.50149
167.02685   370.95302   149.00000  14.81408             12.82142
173.80588   937.81176   170.00000  16.90636             12.89844
181.96732   483.25490   153.00000  15.47196             12.65246
193.74857   822.87429   175.00000  17.44755             12.81646
194.10861   407.33333   267.00000  24.44854             14.00812
194.67300   754.69202   263.00000  21.96959             15.44703
209.62869   997.18143   237.00000  18.47841             16.45917
211.69507   1658.85650  223.00000  19.00791             15.06945
212.64885   821.57252   262.00000  19.82140             17.12866
214.86364   631.68750   176.00000  17.09674             13.49496
217.78363   728.43275   171.00000  17.67013             12.36473
218.20949   863.07510   253.00000  22.03667             15.07333
223.65975   953.83817   241.00000  19.35747             15.98068
227.42804   532.45756   271.00000  19.33304             18.00851
226.93684   561.45789   190.00000  17.07143             14.27439
235.15882   969.23529   170.00000  17.55278             12.33927
236.71287   517.84158   202.00000  20.75400             12.51796
249.43478   710.19255   161.00000  15.56132             13.22491
255.79500   1785.28500  200.00000  18.48052             13.81080
254.48864   902.84091   176.00000  17.88167             12.83542
257.50273   923.49180   183.00000  16.21047             14.40689
265.05189   864.01887   212.00000  17.83847             15.26139
268.33918   1013.71345  171.00000  20.87341             10.55535
269.70667   1095.76889  225.00000  22.83073             12.60025
269.85207   903.21302   169.00000  15.07256             14.33999
276.79630   840.05093   216.00000  17.49059             15.96651
279.27103   1739.78972  214.00000  18.87698             14.50430
280.24561   545.43275   171.00000  18.61602             11.73526
280.21250   856.23125   160.00000  15.60143             13.32356
284.73835   662.78495   279.00000  22.80308             15.74680
284.35249   910.08046   261.00000  20.15016             16.72960
283.40299   679.64179   67.00000   10.81569             8.02491
286.69388   716.82313   147.00000  14.33615             13.12364
288.75510   694.77551   98.00000   11.70996             10.65454
299.37966   642.93220   295.00000  20.79658             18.11444
298.54812   1082.32636  239.00000  18.67588             16.35938
301.83043   1579.77826  230.00000  18.84815             15.61119
301.13953   706.60465   86.00000   11.62947             9.54738
305.22314   743.64876   242.00000  22.09019             13.99988
312.55660   996.20755   212.00000  18.01733             15.10696
311.82209   567.68712   163.00000  16.01925             12.98835
317.36301   697.56164   146.00000  14.96094             12.44499
318.88021   1085.35417  192.00000  17.51092             13.98384
322.02353   584.22353   170.00000  21.98921             9.93132
324.13636   1129.10140  286.00000  20.86424             17.51956
327.05376   1268.02509  279.00000  21.45762             16.56750
326.64948   1502.46907  194.00000  17.26479             14.41747
328.96234   1070.71130  239.00000  21.57649             14.13779
327.55063   1012.45570  158.00000  14.68607             13.88721
329.79570   760.42294   279.00000  21.02670             17.06819
333.27103   1571.75234  214.00000  21.95993             12.62607
335.56170   694.05106   235.00000  19.03290             15.75273
336.70297   1146.20462  303.00000  21.29154             18.17211
336.25767   1021.00613  163.00000  16.62118             12.65585
339.91525   713.48305   236.00000  21.37925             14.08790
338.84729   490.56158   203.00000  17.70826             14.80160
340.85532   509.65106   235.00000  20.08853             15.08747
342.91403   657.89140   221.00000  23.18799             12.30683
344.85455   788.38545   275.00000  20.46245             17.27419
347.09167   746.47083   240.00000  21.37291             14.38925
348.92218   554.89494   257.00000  20.01056             16.44293
351.91120   573.86873   259.00000  20.84871             16.11215
353.96178   620.36306   157.00000  15.56825             12.95093
358.38768   1176.49275  276.00000  22.54146             15.69912
358.33585   768.08302   265.00000  23.09155             14.70993
364.59149   709.55319   235.00000  20.24680             14.85700
362.63402   1015.78866  194.00000  17.57587             14.14448
365.44845   537.75773   194.00000  17.03008             14.52211
362.90511   801.42336   137.00000  14.06062             12.50237
365.30065   1050.35621  306.00000  21.55992             18.62550
365.66667   1570.96624  237.00000  19.08639             15.88641
367.19186   1492.19767  172.00000  17.93725             12.47580
367.26291   660.30516   213.00000  21.24422             12.87946
370.07595   1329.66245  237.00000  23.75253             13.92123
372.61236   833.97753   178.00000  15.89350             14.37210
375.00769   1452.06923  130.00000  16.89353             10.39861
378.29098   499.13525   244.00000  21.32988             14.60895
380.22892   1196.89157  332.00000  22.43158             18.85876
377.56875   590.19375   160.00000  16.38263             12.49932
378.16111   810.32222   180.00000  16.91821             13.64828
381.24138   1061.21839  174.00000  16.16084             13.78759
385.96040   983.62376   202.00000  21.86225             11.88348
383.25000   657.62069   116.00000  14.12296             10.51101
385.80628   694.64398   191.00000  16.66209             14.71110
385.78344   864.59236   157.00000  14.88833             13.47415
386.55251   1104.51598  219.00000  20.76695             13.46026
392.11848   1001.64455  211.00000  20.69353             13.51622
394.08527   555.58527   258.00000  25.05762             13.38312
393.81557   746.25820   244.00000  19.76381             15.79927
395.41841   969.51464   239.00000  18.82364             16.21417
394.88506   588.04023   174.00000  17.53577             12.65028
394.40462   662.51445   173.00000  17.70797             12.45901
398.51777   1065.95939  197.00000  17.02821             14.79397
398.23118   1431.79570  186.00000  17.45449             13.57301
399.71146   517.50198   253.00000  20.51260             15.89652
401.47917   688.58333   144.00000  15.15656             12.14470
400.11579   1499.49474  95.00000   12.80883             9.54838
405.26394   1030.85130  269.00000  20.40308             16.83952
409.24254   764.36194   268.00000  27.36110             12.58659
408.30172   654.29310   232.00000  19.69091             15.24249
410.20259   860.11638   232.00000  18.92045             15.77116
411.29098   905.22131   244.00000  21.30215             14.61242
409.38636   1077.12500  88.00000   12.76590             9.12701
415.75581   1144.48256  172.00000  15.29738             14.49647
421.97595   726.73540   291.00000  25.85773             15.36701
421.09735   577.73451   226.00000  17.49962             16.45877
422.32174   923.75217   230.00000  21.89909             13.46233
421.46853   1072.40559  143.00000  17.75009             10.27828
420.72222   1497.56481  216.00000  18.22102             15.13482
423.69032   605.04516   155.00000  16.82580             11.80143
425.25000   1374.05093  216.00000  18.00247             15.36649
429.86770   549.57977   257.00000  26.07268             12.64192
426.29333   1421.96889  225.00000  17.80239             16.11661
424.90789   1539.75000  152.00000  15.12902             12.93213
427.88679   774.77358   159.00000  14.35752             14.25486
428.93750   1009.00446  224.00000  19.95249             14.71805
431.58984   471.11328   256.00000  19.95040             16.75066
435.09804   623.18954   306.00000  25.19316             15.57192
431.54741   1154.25000  232.00000  18.44576             16.50791
432.80328   970.13661   183.00000  18.07534             12.93503
433.71676   1345.42197  173.00000  17.43071             13.21467
433.58228   805.39241   158.00000  17.33734             11.65687
436.94182   1246.84000  275.00000  21.32732             16.47692
436.45455   651.27841   176.00000  16.76916             13.53696
439.85542   933.71084   249.00000  21.24372             15.06652
440.42188   588.57031   256.00000  18.81770             17.35202
442.94660   567.21845   206.00000  19.19384             13.86310
448.95035   522.06619   423.00000  27.40624             19.74288
444.42661   1382.19266  218.00000  19.13812             14.60134
448.96787   740.08835   249.00000  25.25541             12.76915
443.56566   753.04040   99.00000   11.91993             10.73472
445.53846   1592.88811  143.00000  14.96024             12.28772
447.79104   1611.49751  201.00000  19.39094             13.27509
447.13488   1318.35349  215.00000  19.19464             14.36634
454.16788   1082.99270  137.00000  14.01039             12.52566
462.64671   556.07186   334.00000  27.45276             16.89426
459.44531   724.07812   128.00000  15.27959             10.71861
462.40613   989.54789   261.00000  20.49652             16.30476
468.21600   850.04800   250.00000  25.79962             12.50520
465.61404   944.20175   228.00000  19.93708             14.60248
470.52751   697.25566   309.00000  27.30157             14.51125
466.65816   1308.83673  196.00000  17.28746             14.47836
469.31308   602.16822   214.00000  19.78859             13.89540
468.77215   1080.13924  158.00000  15.23896             13.22638
476.89041   968.61986   292.00000  26.63603             14.31030
472.62032   1107.48128  187.00000  18.46148             12.94769
474.18100   490.40724   221.00000  19.31279             14.73327
473.44444   1588.35556  225.00000  19.96425             14.37579
475.18343   615.57988   169.00000  19.43148             11.14623
488.67982   569.91228   228.00000  22.07238             13.21725
485.84354   848.85714   147.00000  15.36290             12.20674
486.03279   1628.32787  122.00000  13.97354             11.17314
493.16384   996.90960   177.00000  19.47153             11.62332
495.08520   481.58744   223.00000  18.20376             15.92102
501.43478   704.90217   184.00000  17.64375             13.36929
500.07534   847.77397   146.00000  16.09346             11.78968
501.88971   1287.56250  272.00000  20.27328             17.17819
503.44803   1573.34409  279.00000  24.17822             15.04353
501.89091   987.69091   110.00000  14.21903             9.88802
505.33962   1101.93585  265.00000  22.25779             15.32565
511.38354   1643.13820  644.00000  30.99664             27.76705
504.43373   1596.69277  166.00000  16.21659             13.07516
509.90141   585.51408   284.00000  24.38329             14.93840
509.29386   613.38596   228.00000  22.74970             12.83164
514.02479   910.73554   363.00000  27.96269             16.98843
518.44223   670.84064   251.00000  20.84134             15.67294
522.57455   729.90182   275.00000  24.79745             14.24715
520.37349   747.40964   166.00000  18.18537             11.67387
522.43373   608.03012   166.00000  17.96659             11.80805
523.72075   763.80377   265.00000  22.38358             15.21252
527.76901   815.83041   342.00000  25.44178             17.57353
524.10233   715.20930   215.00000  16.98329             16.14706
524.77308   1554.77308  260.00000  19.38045             17.18621
526.21519   954.22152   158.00000  18.58884             10.92053
524.04255   1139.62128  235.00000  21.82446             13.79511
527.50365   657.50365   137.00000  17.91573             10.12714
528.72816   1335.29126  206.00000  19.00205             13.84637
528.06383   597.06383   47.00000   9.60321              6.19447
528.79545   1118.40909  44.00000   8.57389              6.65074
540.29010   979.37201   293.00000  20.76189             18.73701
544.41775   461.66017   462.00000  28.58094             20.93312
535.80405   1226.11486  148.00000  14.62124             12.99020
537.25581   646.27907   129.00000  16.15147             10.56099
546.06441   1240.64068  295.00000  25.05027             15.32096
542.24865   1149.22703  185.00000  16.40750             14.48602
544.27053   696.34783   207.00000  19.06589             13.84782
543.32168   1591.72727  143.00000  15.42600             11.82996
546.42143   1172.56071  280.00000  21.45710             16.83214
548.77889   862.79397   398.00000  26.77129             19.48037
549.29603   1318.79061  277.00000  24.24220             14.84904
545.92208   1577.29221  154.00000  15.99191             12.30524
548.50327   562.03922   153.00000  14.64076             13.31086
547.00680   649.25170   147.00000  15.87625             11.99057
551.10323   932.06452   155.00000  17.60766             11.21424
554.22535   1480.90610  213.00000  20.47922             13.52740
561.68254   574.76825   315.00000  33.06176             12.59745
555.23626   1696.30220  182.00000  16.58410             14.08522
558.61000   1720.30000  200.00000  17.95012             14.39443
558.83645   990.15421   214.00000  21.48967             12.81509
558.19444   957.91667   36.00000   7.35800              6.27423
564.05530   646.25346   217.00000  17.11779             16.24769
564.11570   940.82645   121.00000  13.13887             11.85155
564.01170   1502.49708  171.00000  16.24366             13.39201
567.45161   976.68548   124.00000  17.06818             9.28191
570.11111   1739.79111  225.00000  17.54826             16.40592
571.62360   618.58989   178.00000  20.17411             11.26205
575.22483   758.59396   298.00000  24.00819             15.97057
570.57143   1417.89796  147.00000  14.31772             13.13896
570.10067   1668.61074  149.00000  14.02527             13.57878
573.83117   1431.81818  231.00000  18.70938             16.03690
573.49223   1574.38860  193.00000  18.53276             13.29169
573.16256   599.51724   203.00000  18.15269             14.56505
573.11173   913.82682   179.00000  16.97306             13.45864
574.46207   934.80690   145.00000  14.28764             12.97912
580.20950   730.06145   358.00000  25.60163             18.54891
578.75319   953.92766   235.00000  20.68517             14.73978
577.27000   1508.68500  200.00000  16.81982             15.25318
582.62454   680.49071   269.00000  28.40503             12.29431
584.48760   1029.45868  242.00000  25.41766             12.48319
585.51237   458.09187   283.00000  24.05477             15.48968
578.07576   1113.74242  66.00000   11.00914             7.61638
581.81707   1472.10976  246.00000  20.17885             15.59304
585.71705   491.33721   258.00000  19.69838             16.99446
585.82178   1324.31683  303.00000  21.19240             18.22020
582.90000   1588.09375  160.00000  15.16981             13.48615
588.53550   1082.37870  338.00000  21.60507             19.98686
585.00532   1544.70745  188.00000  18.46788             13.00219
591.48598   880.17445   321.00000  21.94658             19.19666
592.26282   697.63782   312.00000  26.17125             15.58484
591.26036   918.43787   169.00000  17.67131             12.20625
588.87562   1574.10448  201.00000  21.19857             12.17898
594.77855   973.61938   289.00000  23.96200             15.79607
595.40876   1302.07299  274.00000  21.02592             16.70697
593.60581   618.60581   241.00000  21.25606             14.94347
593.71277   1875.57447  94.00000   11.82668             10.61901
602.11373   1038.18824  255.00000  20.92671             15.88430
602.74167   553.65000   240.00000  21.43614             14.58757
598.20280   635.95804   143.00000  14.02877             13.02353
601.32669   1535.50598  251.00000  23.03710             15.58929
598.44138   1677.07586  145.00000  14.90543             12.50207
600.85915   1706.83099  213.00000  19.61180             13.90350
602.19022   532.60870   184.00000  17.07997             13.73452
607.69874   768.24686   239.00000  24.24055             12.57322
607.58454   1629.37198  207.00000  21.80353             12.22723
608.52893   1383.99725  363.00000  22.46456             20.62394
610.14354   925.00957   209.00000  18.79923             14.24661
611.32328   1469.76293  232.00000  22.57690             13.21918
610.29478   1490.87313  268.00000  25.54182             13.44076
614.72358   1514.95122  246.00000  20.68918             15.15120
612.43704   1584.69630  135.00000  16.18080             10.64816
615.30000   507.89500   200.00000  17.97064             14.21548
616.41270   963.76190   189.00000  17.92987             13.56812
616.49730   483.78378   185.00000  15.93116             14.94644
617.01047   1561.01047  191.00000  18.60010             13.45776
621.40066   874.07947   302.00000  21.47810             18.42459
620.32447   701.50532   188.00000  17.80099             13.54871
621.41993   910.02135   281.00000  20.53357             17.73749
622.15162   556.67870   277.00000  29.17116             12.85263
624.69591   1448.52632  342.00000  32.74914             13.46396
624.36975   1673.61345  119.00000  15.76295             9.79762
622.39496   1687.72269  119.00000  13.23472             11.48795
630.47059   446.51373   255.00000  23.91280             13.86505
634.31232   615.37249   349.00000  27.45866             16.56646
630.30952   960.03571   168.00000  15.53370             14.06815
638.77000   592.70667   300.00000  26.39109             14.87751
640.71642   504.62687   268.00000  23.87554             14.41587
640.88757   1642.43787  169.00000  16.69047             12.93057
646.35192   1284.24042  287.00000  20.17812             18.16456
645.14043   1536.57872  235.00000  19.65580             15.37755
649.07721   1326.56250  272.00000  24.42680             14.19394
645.56522   1593.77866  253.00000  21.86321             15.04124
653.27273   1038.78299  341.00000  27.42292             16.05303
649.86093   914.13907   151.00000  16.74975             11.59324
646.92188   1689.54688  64.00000   9.85735              8.33366
650.61326   1653.64088  181.00000  16.79869             13.74187
653.74096   869.06627   166.00000  15.78704             13.39795
653.80672   1675.12605  119.00000  14.86803             10.43293
653.47143   628.78095   210.00000  23.03246             11.90282
652.01887   1457.18868  53.00000   9.43284              7.12906
655.61446   1635.68072  166.00000  17.19483             12.34020
662.73109   1484.99160  357.00000  22.27432             20.56993
661.83491   1063.85849  212.00000  18.24799             15.06932
662.65027   621.28962   183.00000  18.65598             12.63700
664.88312   955.96970   231.00000  18.70493             15.95518
668.24658   888.68493   146.00000  16.49802             11.26977
667.28369   652.61702   141.00000  14.49918             12.43812
678.15722   1264.17010  388.00000  35.10168             14.78238
671.27979   462.33161   193.00000  17.04038             14.48537
677.52365   665.61824   296.00000  29.17917             13.16087
673.52752   1502.66514  218.00000  21.53994             13.16462
675.58621   852.05747   174.00000  19.35203             11.92672
676.71260   417.65748   254.00000  20.82260             15.66204
678.69604   933.10573   227.00000  22.98588             12.76978
679.76991   1554.67699  226.00000  21.26330             13.86445
680.20297   876.65842   202.00000  17.13283             15.09375
683.35593   581.51864   295.00000  22.74622             16.84850
685.67153   1065.24088  274.00000  24.66696             14.40332
685.51149   1600.74138  174.00000  18.36421             12.21008
687.71770   1625.67464  209.00000  18.27676             14.72640
690.85714   1674.44286  280.00000  20.36622             17.90877
689.17361   629.79167   144.00000  15.66665             11.78235
688.81503   1645.10405  173.00000  15.76260             14.00162
691.10345   955.91724   145.00000  16.88623             11.00886
693.93827   1306.13580  162.00000  15.51526             13.34470
696.57021   861.08511   235.00000  20.75117             14.44647
691.55285   1564.11382  123.00000  15.91513             9.90122
703.38550   483.11832   262.00000  28.36682             12.22892
693.89474   1075.65789  38.00000   8.26657              5.94123
699.42308   1573.76923  130.00000  14.32367             11.56025
701.48485   564.76263   198.00000  17.48605             14.48230
704.41732   964.08661   254.00000  22.92933             14.12098
705.88325   493.45178   197.00000  20.74858             12.13303
703.80172   877.82759   116.00000  12.97070             11.50268
709.03371   630.78090   178.00000  17.95953             12.72684
717.34915   570.27797   295.00000  27.61188             13.91733
710.81356   1561.40678  118.00000  14.09702             10.66450
708.84375   1263.37500  32.00000   6.91016              5.84030
715.60821   1674.03731  268.00000  21.77891             15.74918
714.88532   1056.59174  218.00000  17.40040             15.99886
724.66355   1654.17290  214.00000  28.17971             11.24525
718.55200   1979.30400  125.00000  14.47830             11.06024
722.35468   623.05419   203.00000  16.84936             15.60819
721.64737   890.22105   190.00000  18.12016             13.42755
726.03980   961.40299   201.00000  17.51253             14.87397
722.01205   1560.49398  83.00000   10.65906             10.03468
721.94231   1067.13462  52.00000   9.48017              6.99000
721.60000   1262.45714  35.00000   7.96372              5.58989
727.12687   1543.17910  134.00000  14.93964             11.48811
733.25101   494.51417   247.00000  20.09884             15.66853
731.19728   636.00680   147.00000  15.09215             12.52635
732.87054   939.23214   224.00000  17.91244             16.17140
744.82197   415.68939   264.00000  25.12927             13.46092
741.75893   645.76339   224.00000  18.47152             15.56710
742.27338   630.51079   139.00000  15.57608             11.43834
744.81140   1044.64912  228.00000  18.90469             15.37382
746.90610   955.55869   213.00000  16.77799             16.33719
755.49442   1505.39033  269.00000  24.38355             14.40211
754.85870   1674.84058  276.00000  20.08589             17.56657
755.52489   972.88235   221.00000  17.69831             15.92644
755.38889   899.72727   198.00000  16.49262             15.29309
761.53755   527.14229   253.00000  20.44758             16.09951
761.07631   1029.87149  249.00000  18.07288             17.57376
760.95500   1519.18500  200.00000  17.80108             14.47140
769.23810   422.03463   231.00000  21.87467             13.46413
767.91121   492.16355   214.00000  20.69204             13.35061
767.30843   656.28736   522.00000  31.62768             21.37720
766.17431   956.92661   218.00000  18.32467             15.33244
769.38060   944.53731   134.00000  14.85422             11.56927
774.34043   1648.89007  282.00000  24.61259             14.69895
775.65217   1551.83399  253.00000  20.61500             16.01274
773.81646   529.68354   158.00000  17.07812             11.93099
782.38624   606.70370   378.00000  25.08617             19.54057
777.74194   886.10323   155.00000  14.90885             13.49695
782.38846   1015.63077  260.00000  21.58848             15.37791
784.06579   483.74342   304.00000  20.78979             19.72786
792.43953   1232.86136  339.00000  31.89258             13.80079
793.22101   877.42754   276.00000  20.87807             16.92592
794.99388   1139.63609  327.00000  25.31353             16.71176
789.87917   1523.21250  240.00000  19.00075             16.21981
791.37200   503.84800   250.00000  21.15908             15.13927
794.01923   991.98462   260.00000  21.08221             15.79556
794.57401   655.14440   277.00000  25.97800             14.58055
794.59592   1634.97959  245.00000  21.01923             15.11579
792.89041   947.24658   219.00000  18.80480             14.93700
798.08696   1010.45342  161.00000  14.51212             14.20175
800.66423   314.84672   274.00000  22.49329             15.62762
802.83333   582.77469   324.00000  24.22706             17.57918
804.49855   1295.91884  345.00000  24.57732             17.99872
799.51327   862.89381   113.00000  12.71184             11.31195
803.23697   247.92417   211.00000  20.71310             13.04770
805.53631   299.55866   179.00000  19.10978             11.96327
804.92523   475.23832   214.00000  18.25307             14.95524
804.68621   415.11379   290.00000  27.65747             13.51215
806.00000   1679.46715  137.00000  14.22557             12.36588
809.11446   949.98193   166.00000  17.83000             11.92534
809.67260   362.09964   281.00000  26.36586             13.70429
812.92611   606.68473   203.00000  20.26438             12.89489
810.48168   1003.58639  191.00000  17.46869             14.11760
816.15530   864.79167   264.00000  23.88423             14.50944
815.52645   673.80353   397.00000  25.17002             20.27140
816.50439   698.87719   228.00000  20.32926             14.43761
816.37674   1689.21395  215.00000  17.90937             15.44292
818.01961   853.13072   153.00000  17.16949             11.33857
821.34021   988.92784   291.00000  21.82685             17.29799
827.97324   552.61538   299.00000  25.33403             15.65972
831.80634   896.49296   284.00000  33.76833             11.39065
826.12048   1665.34940  249.00000  19.85991             15.98974
830.74333   877.61667   300.00000  27.14546             14.43279
832.71336   1287.69055  307.00000  26.30724             14.97929
829.00568   689.73295   176.00000  17.88596             12.65794
829.90476   1520.28571  21.00000   5.97288              4.55832
836.27184   1010.98058  206.00000  17.77313             14.79358
838.75127   418.52792   197.00000  17.45270             14.39560
838.02703   513.60360   222.00000  20.50235             13.87888
838.88820   491.86957   161.00000  15.39268             13.30051
843.19212   937.61576   203.00000  21.23657             12.23602
844.94931   432.68203   217.00000  18.32234             15.18296
842.79679   1174.37968  187.00000  17.76807             13.53317
844.86628   599.16860   172.00000  16.87587             13.15555
845.24111   1041.49012  253.00000  18.45235             17.48726
845.49007   925.57616   151.00000  16.44981             12.51799
842.39394   715.48485   33.00000   6.68318              6.22799
848.21250   1229.48125  160.00000  16.47539             12.55522
849.61404   1664.87135  171.00000  16.26164             13.44335
859.33238   1194.23782  349.00000  30.16851             15.44050
855.68182   566.84343   198.00000  17.44122             14.67953
856.58201   510.20106   189.00000  16.50282             14.63282
860.01923   866.15064   312.00000  22.22562             18.76881
864.59887   937.32768   177.00000  16.37241             13.76525
868.55365   712.36052   233.00000  21.54193             14.09106
868.68444   1221.70667  225.00000  23.52509             12.60019
866.76371   1541.47679  237.00000  19.11036             15.86926
868.37500   1044.88793  232.00000  18.99900             15.74257
869.10040   1615.32129  249.00000  20.72993             15.59552
869.98182   1028.63030  165.00000  15.76771             13.34846
872.95088   486.13684   285.00000  23.11496             15.89745
876.16908   656.14493   207.00000  19.92952             13.24651
882.59692   1632.37846  325.00000  23.28045             18.25858
874.15789   601.76316   38.00000   7.76963              6.24244
881.85425   880.49393   247.00000  20.85243             15.34257
880.15068   866.34247   146.00000  15.43535             12.24199
884.36054   627.94558   294.00000  26.07514             14.68307
883.33140   1542.47093  172.00000  15.79257             13.95627
888.86018   555.19453   329.00000  23.11353             18.19035
897.48529   1289.03529  340.00000  35.95955             12.14106
888.23448   1981.15862  145.00000  15.76285             11.73333
887.11538   666.78846   52.00000   9.01658              7.31195
894.75988   689.94833   329.00000  25.69450             16.87666
893.66667   1595.43810  210.00000  21.59814             12.60027
889.57576   517.42424   33.00000   6.68318              6.22799
893.57407   575.61111   162.00000  18.45727             11.60171
896.06091   615.97462   197.00000  17.50978             14.51825
896.56338   495.78169   142.00000  14.88794             12.14936
899.12299   928.73797   187.00000  17.48297             13.84404
898.00000   1557.75349  215.00000  19.28980             14.24800
900.87391   952.36522   230.00000  19.67438             15.30303
905.05495   569.06044   182.00000  17.19558             13.51706
900.02564   648.20513   39.00000   8.52139              5.88214
899.00000   672.50000   22.00000   5.39360              5.22233
915.79181   1203.23891  293.00000  31.21967             12.32322
914.36397   746.33088   272.00000  22.09278             16.16758
912.95876   1560.35567  194.00000  16.81661             14.73672
914.93496   724.72358   123.00000  14.82418             10.66690
918.75581   1244.39535  258.00000  21.69706             15.22187
915.05952   759.83333   84.00000   11.56003             9.26631
921.59928   882.68231   277.00000  22.66300             15.66557
918.60163   1625.58537  123.00000  17.22587             9.35109
923.98529   898.70098   204.00000  18.04769             14.42438
928.68482   864.12062   257.00000  18.90873             17.41192
928.44444   957.53140   207.00000  17.50864             15.08144
930.91787   733.70048   207.00000  17.12464             15.61139
930.96070   984.76419   229.00000  20.71845             14.35717
929.39181   1559.42105  171.00000  16.24489             13.46615
934.33163   692.44898   196.00000  21.99630             11.51017
932.85874   929.85130   269.00000  20.95515             16.52666
935.07895   780.19925   266.00000  25.78239             13.30863
934.07463   1625.03980  201.00000  17.24086             15.03401
934.49091   701.25455   55.00000   8.73040              8.07557
946.24396   887.60145   414.00000  31.08270             17.31424
942.21918   977.09589   219.00000  18.91200             16.07504
942.12281   869.72807   114.00000  13.14632             11.04674
942.50746   1220.86567  67.00000   10.13942             8.43630
948.94359   920.30769   195.00000  18.26745             13.62637
957.83230   1295.22981  322.00000  34.43225             12.31097
946.28000   768.02000   50.00000   9.54926              6.69558
946.51471   1023.30882  136.00000  16.29139             10.92768
952.51140   1595.44300  307.00000  22.68857             18.06149
952.13825   816.27189   217.00000  18.40100             15.06139
953.45226   679.16080   199.00000  20.14674             12.72478
958.04235   833.93160   307.00000  28.92639             14.11935
953.23316   1561.62176  193.00000  16.60796             14.79046
956.49565   1027.87826  115.00000  14.33744             10.73031
957.77982   1037.99083  218.00000  21.99574             12.90606
964.48795   1059.62651  332.00000  24.63397             17.48371
960.91608   1262.22727  286.00000  23.58201             16.17340
955.67568   647.62162   37.00000   7.99679              5.84223
963.81648   1532.03371  267.00000  22.75275             15.03412
961.20833   661.04167   48.00000   8.90459              6.87891
970.33953   803.55814   215.00000  23.31415             12.24644
971.74725   1208.27839  273.00000  22.98209             15.37686
975.56373   642.89216   204.00000  18.10791             14.54976
981.85232   786.15190   237.00000  24.16122             13.44933
978.86022   611.75806   186.00000  19.00743             12.56234
981.00000   1543.30128  156.00000  16.09630             12.43941
980.37838   595.67568   37.00000   7.99679              5.84223
982.70769   579.63077   65.00000   10.78117             7.78773
981.63636   628.75000   44.00000   8.24744              6.75213
984.93642   927.25434   173.00000  17.00127             13.03736
987.21656   1271.12102  157.00000  15.34413             13.10442
987.49587   811.90083   121.00000  14.28766             10.78272
990.32759   180.57759   232.00000  18.06482             16.41238
991.22059   936.71569   204.00000  20.84762             12.71448
992.07240   566.14932   221.00000  18.26817             15.59516
993.52090   604.67524   311.00000  25.57050             15.78732
999.01770   953.39823   339.00000  27.01698             17.87801
991.07317   754.56098   82.00000   10.53812             9.96202
994.41667   1195.72222  144.00000  14.18803             12.96229
993.44286   635.82857   70.00000   11.44976             7.79253
1007.32459  1262.05902  305.00000  32.21700             12.29189
1000.14907  1284.03727  161.00000  16.55025             12.42707
998.39241   1530.15823  158.00000  17.49896             11.55660
999.86070   816.59204   201.00000  19.90704             13.14974
999.20253   1474.11392  158.00000  15.67183             12.86387
1002.04605  751.33553   152.00000  15.54513             13.02984
1003.62348  732.61538   247.00000  30.53091             12.05275
1000.88462  621.26923   52.00000   9.90871              6.66668
1009.62857  1073.38286  350.00000  25.80606             17.58271
1008.42233  1443.32039  206.00000  20.38185             12.91220
1007.64865  1554.39459  185.00000  16.49727             14.27909
1004.84091  792.59091   44.00000   8.97125              6.18484
1013.12234  521.98670   376.00000  25.26296             19.67524
1008.00000  578.57471   87.00000   11.64444             9.55061
1010.09467  768.52663   169.00000  16.78697             13.34860
1010.05882  923.90441   136.00000  14.71905             11.92999
1011.06202  837.79845   129.00000  13.02481             12.66134
1013.01376  1468.80734  218.00000  22.99528             12.21880
1015.24623  1566.23116  199.00000  17.44543             14.67103
1011.21875  721.12500   32.00000   6.91120              5.89234
1020.89125  732.56499   377.00000  24.00743             20.26749
1019.13146  807.76995   213.00000  20.39311             13.43713
1016.85096  503.42308   208.00000  19.89483             13.35806
1020.98230  189.68584   226.00000  19.09270             15.17245
1023.31488  1196.03460  289.00000  21.53234             17.37909
1020.85366  1499.79024  205.00000  17.26359             15.57249
1021.39791  1274.32461  191.00000  18.68513             13.33214
1018.60000  704.86000   50.00000   8.98509              7.05936
1023.17089  831.75949   158.00000  15.39838             13.15837
1024.16444  910.66222   225.00000  18.72172             15.53159
1024.40773  1424.73820  233.00000  18.89577             15.81384
1024.50943  1476.25786  159.00000  15.62960             13.06621
1022.73438  821.06250   64.00000   9.43411              8.63459
1027.29808  714.02885   104.00000  12.36162             10.72316
1035.22269  822.23109   238.00000  20.81907             15.03422
1037.63043  927.46196   184.00000  19.51317             12.03553
1039.97166  1554.45344  247.00000  26.22011             12.09094
1038.15766  1314.77477  222.00000  18.90847             15.08053
1037.42500  1620.83125  160.00000  15.79552             12.90178
1043.20896  1199.94030  134.00000  14.41931             11.90194
1048.57851  461.87603   242.00000  19.12170             16.11733
1043.67241  681.08621   58.00000   9.90371              7.49790
1045.53488  418.72093   43.00000   8.61647              6.33394
1050.15021  439.12017   233.00000  21.03108             14.89141
1050.03297  915.76923   91.00000   12.89045             9.58019
1048.50000  726.50000   22.00000   6.55997              4.16299
1058.01970  1332.19704  203.00000  18.59769             13.90116
1060.76071  424.46786   280.00000  20.89672             17.36483
1063.25564  688.59900   399.00000  27.53057             19.58448
1058.91358  821.37654   162.00000  15.72794             13.26732
1060.67550  805.41722   151.00000  16.47154             11.99254
1059.92814  916.05988   167.00000  15.88782             13.54832
1058.28333  1546.73333  60.00000   8.99276              8.49557
1066.60484  746.30645   248.00000  24.14721             13.55068
1060.20833  450.54167   24.00000   6.31777              4.90207
1068.65552  793.11037   299.00000  23.90647             16.86080
1067.21992  842.02905   241.00000  18.31993             16.90563
1069.87895  197.94211   190.00000  16.41453             14.75988
1075.94800  720.52800   250.00000  18.74409             17.05132
1075.53571  1335.60268  224.00000  18.08367             15.90392
1075.31788  1063.56291  151.00000  16.16601             12.22959
1079.00348  1278.30314  287.00000  22.47920             16.82796
1072.85714  448.36735   49.00000   8.82924              7.10618
1085.23849  220.21757   239.00000  20.33787             15.23157
1084.08000  853.80000   200.00000  17.62566             14.60252
1083.03125  1619.67708  96.00000   12.26798             10.07370
1086.62745  1342.35294  51.00000   8.80877              7.43571
1092.11111  1613.53333  180.00000  17.52058             13.31050
1097.40385  803.63846   260.00000  25.71095             14.27748
1100.46032  1073.84127  189.00000  18.35413             13.15714
1108.80805  238.49536   323.00000  23.42527             17.84569
1109.87109  791.10938   256.00000  22.25028             14.86288
1107.59489  194.70803   274.00000  24.85022             14.12647
1113.92182  1054.67101  307.00000  20.74230             18.88985
1108.07547  803.66038   53.00000   8.43873              8.18087
1111.53043  1646.08696  115.00000  14.04695             10.49429
1120.59105  1293.89457  313.00000  23.52311             17.15411
1122.70543  1309.23643  258.00000  23.89469             13.85533
1124.19307  157.26733   202.00000  16.94229             15.35105
1123.00000  1602.41606  137.00000  15.23381             11.47867
1129.11722  748.29904   418.00000  32.63237             17.00561
1131.33482  1350.02232  224.00000  17.30752             16.51638
1139.03715  274.21672   323.00000  24.34859             17.41449
1135.51464  141.89958   239.00000  24.64846             12.74418
1144.06965  801.15423   201.00000  23.71664             11.09740
1140.38571  811.33571   140.00000  15.93152             11.26068
1140.62128  1395.80000  235.00000  21.05399             14.37341
1144.84865  850.00000   185.00000  17.93783             13.14976
1151.97126  702.09483   348.00000  22.23978             21.05697
1145.62500  747.79688   64.00000   10.24039             8.02958
1147.48718  729.58974   39.00000   7.61984              6.58370
1157.82490  676.96109   257.00000  20.19181             16.39190
1156.87446  1380.86147  231.00000  21.03067             14.11242
1163.94241  1064.70157  191.00000  18.31650             13.57360
1161.79147  1317.78673  211.00000  18.85015             14.45198
1158.33333  719.69444   36.00000   8.85341              5.30315
1165.07792  140.14286   308.00000  28.01959             14.25687
1169.39721  1420.22300  287.00000  23.31572             16.04038
1169.24364  1041.29818  275.00000  24.97629             14.22194
1164.13559  1604.76271  118.00000  13.86372             10.84680
1179.47203  802.02797   286.00000  28.40017             13.28678
1173.06471  1309.57647  170.00000  16.68550             13.00038
1173.41379  1328.37931  29.00000   6.25747              5.89058
1180.65801  1346.63203  231.00000  27.10627             11.37402
1182.98726  812.40764   157.00000  19.20921             10.45772
1181.26415  1604.68868  106.00000  12.72445             10.68707
1185.74812  639.26316   266.00000  21.68746             16.94964
1185.60744  849.99587   242.00000  20.93536             14.77898
1189.86614  1359.20079  254.00000  26.10039             12.65825
1185.82323  306.67677   198.00000  16.51461             15.48949
1186.16114  175.75829   211.00000  18.49249             14.61658
1187.71717  1593.93434  198.00000  18.01266             14.17685
1197.19663  298.50562   178.00000  18.13370             12.57201
1202.57333  201.84444   225.00000  17.55930             16.37498
1199.87500  784.50000   32.00000   6.61438              6.16441
1206.97835  1330.27706  231.00000  22.55628             13.17367
1215.06680  847.14372   494.00000  32.64108             19.71138
1205.15827  1604.27338  139.00000  15.13517             11.72370
1209.49834  1037.26246  301.00000  29.68607             15.07062
1210.61868  101.30350   257.00000  21.15678             15.64833
1211.26230  1341.69672  122.00000  15.83880             9.85482
1224.84097  624.16712   371.00000  22.89257             20.81404
1229.68977  318.72277   303.00000  23.52284             16.55311
1230.64883  792.57860   299.00000  24.81511             15.93206
1231.64835  1428.54945  273.00000  23.46867             14.93167
1234.69288  241.49438   267.00000  21.21043             16.24928
1236.64889  96.40000    225.00000  17.05724             16.86924
1237.19718  810.66197   71.00000   14.17867             6.42241
1237.24242  800.30303   33.00000   7.22896              5.79440
1243.82474  1348.57216  194.00000  20.19450             12.29447
1247.65015  1033.08050  323.00000  22.65964             18.93762
1253.37086  1368.88742  302.00000  27.83185             13.92855
1250.29741  254.64224   232.00000  22.20522             13.42217
1254.52609  99.46957    230.00000  18.66014             15.72203
1251.52273  813.15909   44.00000   7.76215              7.41432
1258.57085  789.31174   247.00000  20.54500             15.97038
1265.38140  810.53953   215.00000  22.71248             12.32828
1267.68098  1430.44479  326.00000  21.99269             19.14283
1269.25000  1570.67188  128.00000  15.47804             10.73349
1270.87912  837.62637   182.00000  17.42862             13.32831
1275.72507  1035.91644  371.00000  23.24813             20.87064
1274.80184  342.51613   217.00000  17.24718             16.11090
1273.90698  1561.81395  129.00000  15.15576             10.92602
1278.76190  276.43223   273.00000  20.89212             16.79886
1282.89610  1401.14286  231.00000  21.52470             13.70237
1281.55952  781.92857   84.00000   12.31481             8.70782
1287.20800  1026.38400  125.00000  15.05631             10.64406
1291.03211  1620.33945  218.00000  17.26173             16.10482
1298.15068  289.02740   219.00000  17.89303             15.62030
1301.17727  1585.08636  220.00000  18.74817             15.15113
1302.64159  805.43805   226.00000  18.48614             16.00124
1297.95455  818.93182   44.00000   7.62770              7.30391
1301.66667  786.91111   45.00000   11.19836             5.09284
1304.96396  1556.04505  222.00000  18.89875             15.09042
1311.56686  852.86047   344.00000  26.04936             17.28896
1314.27674  1379.92558  430.00000  34.61979             16.26432
1304.66019  1408.73786  103.00000  12.25595             10.73647
1306.86441  1527.62712  118.00000  13.87456             10.87189
1306.05109  1598.75182  137.00000  13.74888             12.80338
1310.35417  128.02083   192.00000  16.62400             14.79737
1311.41509  1497.78302  106.00000  12.92941             10.58477
1315.90500  1414.05000  200.00000  16.36548             15.78564
1312.40000  1571.13846  130.00000  14.42675             11.56994
1316.80176  1433.92952  227.00000  18.30394             15.95071
1319.53659  298.45854   205.00000  17.96064             14.63109
1321.11017  1473.39831  236.00000  21.83339             13.94035
1321.03922  1493.75490  102.00000  12.33576             10.58764
1324.06341  1506.22927  205.00000  19.34049             13.60581
1321.33645  1671.30841  107.00000  12.57455             10.87765
1321.81000  1577.31000  100.00000  13.72645             9.32253
1321.72727  786.31818   22.00000   5.85760              4.82102
1328.93370  816.86188   181.00000  19.66559             11.93650
1328.05054  132.22744   277.00000  19.92994             17.87142
1339.00907  1369.36479  551.00000  32.26949             24.13163
1329.58571  825.80000   70.00000   12.34581             7.20876
1334.02190  316.28832   274.00000  21.64981             16.35261
1335.63758  156.52349   298.00000  25.46226             15.17347
1338.46939  789.48980   245.00000  22.39439             14.03643
1333.58696  1454.05435  92.00000   11.43453             10.22553
1337.45109  110.79891   184.00000  16.92543             13.90875
1341.13527  801.79227   207.00000  18.99289             14.44989
1337.04459  1495.49682  157.00000  15.20758             13.16469
1337.89764  1639.33858  127.00000  15.58070             10.37998
1340.46479  1667.00000  142.00000  14.85957             12.33186
1341.17722  1566.94937  79.00000   10.53620             9.68566
1345.99425  79.37356    174.00000  17.81502             12.51119
1344.75658  1550.96053  152.00000  14.91670             13.05830
1344.89241  1914.18987  158.00000  15.62758             12.99577
1348.65079  1029.88492  252.00000  21.61158             15.06965
1352.35873  858.35873   315.00000  21.77341             18.51016
1357.03646  806.30208   192.00000  30.44880             8.75439
1351.00000  1566.61417  127.00000  14.27703             11.43645
1352.95420  1591.77863  131.00000  14.02602             11.93153
1353.39007  1649.41844  141.00000  13.74236             13.17464
1355.67323  1468.72835  254.00000  22.41430             14.89601
1357.52381  796.83929   168.00000  18.30605             12.09445
1356.57143  819.02232   224.00000  27.76758             11.41178
1364.33852  1385.02335  257.00000  27.67445             11.88149
1368.05238  1022.22857  210.00000  22.78696             11.76389
1369.80216  1487.83453  278.00000  25.75649             14.60854
1371.54108  871.62323   353.00000  26.10602             18.16065
1371.85833  68.83333    240.00000  21.98996             14.13068
1373.95968  1562.25000  124.00000  13.55867             11.84474
1382.84871  1522.81919  271.00000  25.21510             13.77103
1387.09836  200.80562   427.00000  25.03735             22.33672
1389.30317  1509.14932  221.00000  21.24436             13.39107
1397.38692  856.26975   367.00000  26.68764             18.02036
1395.86986  1402.86301  146.00000  14.37646             12.95644
1395.53968  1632.46825  126.00000  14.21527             11.36601
1402.60778  1025.76946  334.00000  23.03123             19.11325
1402.98901  1429.71978  182.00000  19.97425             11.81689
1402.61667  1697.01667  180.00000  17.58722             13.04951
1406.51754  1352.65789  228.00000  20.25427             15.41107
1403.01351  1413.31081  148.00000  14.78548             12.74078
1401.95918  1641.33673  98.00000   12.16095             10.33248
1405.58470  1721.08197  183.00000  17.47236             13.40917
1407.59459  1376.04865  185.00000  18.58181             12.72007
1407.53020  1599.77852  149.00000  15.59130             12.21306
1410.01031  882.94845   194.00000  16.99173             14.64000
1410.21935  1387.91613  155.00000  15.39421             12.89438
1410.59000  1648.86000  100.00000  13.15591             9.76928
1413.26667  1403.64242  165.00000  16.05701             13.10590
1421.03629  806.08468   248.00000  22.06946             14.42768
1423.43723  1341.54113  231.00000  19.88734             15.04068
1420.71053  1528.15351  228.00000  19.38347             15.05669
1420.80435  890.13043   92.00000   11.99145             10.06148
1425.85774  244.92469   239.00000  19.58679             15.71962
1424.33333  1727.26282  156.00000  16.33530             12.15786
1429.69624  1469.05914  372.00000  34.68925             14.05308
1433.51131  1515.50679  221.00000  22.40310             13.49639
1433.03226  1682.14839  155.00000  14.78871             13.39316
1434.66667  1712.58095  105.00000  12.10772             11.15674
1440.05909  883.65000   220.00000  19.71021             14.43861
1442.34615  274.25641   312.00000  20.64780             19.39420
1436.67368  1722.78947  95.00000   11.95543             10.23523
1447.37073  795.59024   205.00000  21.81353             12.14171
1451.42537  864.31716   268.00000  22.79689             15.39646
1450.95833  1808.77500  120.00000  12.73640             12.01719
1454.14961  1556.60630  127.00000  13.37605             12.23551
1453.25210  1773.78992  119.00000  13.34153             11.46914
1458.11538  750.52991   234.00000  20.07109             15.01341
1456.20202  1380.20707  198.00000  18.56145             13.61195
1456.90123  1684.31481  162.00000  16.15644             12.85985
1461.85507  1547.34058  138.00000  13.68723             12.84144
1469.93651  847.09524   189.00000  16.84027             14.44145
1469.07407  1684.96296  27.00000   6.45644              5.57616
1476.95596  787.39119   386.00000  28.69862             17.49324
1480.49846  1383.29846  325.00000  26.67115             15.63585
1480.12500  1572.85714  112.00000  13.55767             10.59172
1490.75219  910.74123   456.00000  28.11221             21.34513
1484.12195  1703.19512  164.00000  15.28229             13.72001
1488.02857  803.84000   175.00000  20.87092             10.73335
1486.12593  1564.11852  135.00000  14.83326             11.76811
1491.82824  1537.00382  262.00000  24.36947             13.90399
1494.41544  1518.60662  272.00000  28.30732             12.61835
1504.02381  855.42857   42.00000   8.50869              6.27064
1510.21608  1723.70352  199.00000  16.49813             15.48382
1510.09554  1705.57962  157.00000  15.52495             12.97827
1517.24516  856.86774   310.00000  28.82776             14.04427
1519.57551  1531.84082  245.00000  18.96698             16.86640
1518.34562  1597.82028  217.00000  17.52552             15.81793
1522.22892  938.15261   249.00000  19.74517             16.16139
1530.41071  797.45357   280.00000  30.26970             11.83870
1525.98930  1383.52941  187.00000  18.99229             12.56360
1536.97714  845.42857   175.00000  20.54341             10.91388
1538.11688  1526.25325  154.00000  14.71383             13.33382
1541.56731  1629.92788  208.00000  19.82607             13.35615
1547.16461  1505.41564  243.00000  21.35855             14.60162
1557.49749  801.81407   199.00000  20.57404             12.36362
1556.04152  1657.90311  289.00000  23.94013             15.62649
1560.69084  1394.37023  262.00000  22.14325             15.32149
1560.77593  1520.09544  241.00000  20.84898             15.42825
1563.90789  971.61184   152.00000  15.99695             12.22480
1572.19880  1652.78916  166.00000  17.51147             12.06628
1579.82243  977.84424   321.00000  23.46496             18.03920
1579.98104  999.75829   211.00000  18.18835             14.79327
1582.80335  842.23431   239.00000  24.30362             12.95130
1580.49375  1524.81250  160.00000  16.43046             12.41277
1582.43564  1677.36634  101.00000  12.73741             10.21067
1602.73667  1433.06000  300.00000  29.53693             13.11497
1599.39412  1006.68235  170.00000  14.85908             14.67939
1606.01709  791.23077   234.00000  19.78090             15.28072
1605.10345  810.28276   145.00000  16.29338             11.40596
1608.06478  1017.85020  247.00000  19.54266             16.67134
1612.46311  1507.82787  244.00000  20.99937             14.91966
1620.76923  1699.41259  143.00000  15.00378             12.20840
1629.95172  1427.01379  290.00000  21.04760             17.58662
1633.04348  1019.02609  230.00000  20.81974             14.08644
1645.42791  1064.93023  215.00000  18.63969             14.78626
1647.71373  1457.83529  255.00000  23.93966             13.67244
1646.28000  1741.06857  175.00000  15.99619             13.98053
1648.73430  796.08213   207.00000  20.03380             13.25043
1663.39419  1055.28631  241.00000  20.56592             14.94889
1664.63229  1508.18386  223.00000  22.59142             12.66044
1690.86014  1115.63287  286.00000  28.25054             13.80573
1684.80571  786.00571   175.00000  18.29257             12.22457
1688.67234  1071.26809  235.00000  17.61696             17.12136
1691.16602  1443.10425  259.00000  19.23530             17.23913
1695.50385  1098.33462  260.00000  19.25471             17.36539
1695.38605  772.14419   215.00000  17.85697             15.50550
1698.66864  1760.82249  169.00000  16.50378             13.08745
1737.90625  1061.95833  192.00000  16.34834             15.04648
1758.41319  766.89931   288.00000  28.37680             12.95620
1769.58704  1051.43320  247.00000  20.42218             15.61082
1772.10949  1396.80657  274.00000  27.45524             12.80238
1793.44747  1053.03502  257.00000  22.40640             14.78268
1802.07170  1395.32075  265.00000  21.92512             15.47751
1807.82940  757.33333   381.00000  29.83507             16.49157
1805.24786  1021.33761  234.00000  18.44270             16.21544
1813.43023  1431.51938  258.00000  28.60867             11.92755
1826.07273  755.16970   165.00000  16.16541             13.06955
1828.77239  1016.99627  268.00000  21.27181             16.39968
1847.62069  748.94397   232.00000  19.12259             15.49778
1850.40000  2034.87200  125.00000  14.52743             11.02232
1872.62034  1449.52203  295.00000  26.87977             14.04224
1885.96407  750.36527   167.00000  17.12974             12.49612
1918.82963  745.81481   135.00000  14.56494             11.94329
1920.78689  1462.03279  122.00000  17.88399             9.21559
1959.34703  744.52055   219.00000  19.50713             14.35825
1967.59259  1468.35802  81.00000   11.66662             9.01155
1998.96078  1336.65686  204.00000  20.54388             12.69404
2037.17021  1387.86702  188.00000  21.10671             11.68263