# Filename: Nuclei_416_ctrl_60x_014.npz
# Voxel size (nm): (108, 108)
# Area quantity: voxels
# Num nuclei detected: 1151
Y           X           AREA       MAJOR_AXIS_LENGTH    MINOR_AXIS_LENGTH
19.57419    821.27742   155.00000  17.47894             11.78433
22.23874    610.90090   222.00000  20.56767             13.87367
24.09268    924.79512   205.00000  22.07989             11.98460
22.25234    451.42056   107.00000  12.70844             10.70383
29.76000    1479.06000  50.00000   8.73638              7.31960
36.20536    668.29464   112.00000  14.89421             9.62653
44.19643    682.32143   112.00000  13.42434             10.68120
55.42446    569.42446   139.00000  15.68472             11.46882
63.73585    730.34906   106.00000  14.08185             9.71256
82.13235    1014.24510  204.00000  19.99272             13.04858
83.25610    744.43902   164.00000  15.22668             13.71186
98.13675    671.11111   234.00000  17.77544             16.99418
98.51471    757.08824   136.00000  14.56788             12.05387
102.48031   180.12598   127.00000  13.63553             12.00464
106.89952   696.79426   209.00000  18.39985             14.51658
110.25616   785.37931   203.00000  18.00648             14.50330
115.42857   726.98810   252.00000  19.44613             16.53239
113.93007   798.50350   143.00000  16.23402             11.20255
120.46277   1414.09043  188.00000  17.36918             13.77436
131.63333   762.39583   240.00000  21.55804             14.37102
131.49045   521.68790   157.00000  16.50795             12.77304
146.27490   786.44622   251.00000  19.94672             16.12391
147.63473   534.80838   167.00000  15.57268             13.80586
160.82759   205.01379   145.00000  15.20369             12.76134
163.01667   1087.29583  240.00000  20.40335             15.00995
168.10390   1351.15584  231.00000  18.96480             15.60831
170.80000   272.65217   115.00000  14.52943             10.14108
173.23223   521.13744   211.00000  20.35607             13.36086
175.27950   355.20497   161.00000  16.39311             12.65901
178.34973   1111.98361  183.00000  18.61572             12.64551
179.30994   310.11696   171.00000  16.30351             13.66414
180.58163   479.64286   98.00000   12.36085             10.16199
185.60944   339.84979   233.00000  22.77776             13.51469
188.24790   873.86134   238.00000  18.86625             16.13860
188.22330   1125.80583  206.00000  19.98029             13.16101
194.41627   434.78947   209.00000  20.86391             12.77971
191.51579   513.64211   95.00000   13.29543             9.30417
195.13596   844.24123   228.00000  18.15373             16.03136
202.31933   793.30252   238.00000  19.24522             15.89158
206.09091   505.50350   143.00000  16.11103             11.98461
216.06612   303.58264   242.00000  18.78561             16.48879
225.87719   742.87018   285.00000  21.62289             16.85550
233.94416   439.82234   197.00000  16.42450             15.28264
242.03721   550.73488   215.00000  18.48464             14.91243
247.07075   688.38679   212.00000  24.90335             10.94369
250.80556   582.38095   252.00000  20.87873             15.43268
252.08824   275.21765   170.00000  16.19343             13.63891
258.51321   636.27170   265.00000  21.23091             16.18211
260.94565   536.57609   184.00000  15.78611             14.95668
263.06780   497.84181   177.00000  15.70836             14.47868
267.70667   420.62222   225.00000  18.84562             15.23301
269.83410   281.16590   217.00000  19.50180             14.31177
273.10156   132.11719   128.00000  14.98570             11.20465
275.03557   154.45059   253.00000  20.61437             15.88049
271.35294   519.30392   102.00000  13.44390             9.70679
270.93976   561.53012   83.00000   11.82924             8.99244
275.23684   438.45263   190.00000  19.17063             12.69961
275.00000   530.33846   65.00000   10.44841             8.10780
280.40435   504.36957   230.00000  19.81139             14.86617
287.57412   595.06739   371.00000  35.71189             14.58738
283.67619   540.75714   210.00000  17.66584             15.17020
287.56021   425.47120   191.00000  17.01527             14.51920
288.81152   563.17277   191.00000  17.00887             14.61255
295.90213   300.82979   235.00000  19.37910             15.46347
295.39394   467.71515   165.00000  17.72332             12.04309
298.69767   571.55039   129.00000  14.56683             11.66100
306.19417   385.61812   309.00000  25.27662             16.35590
296.80303   500.90909   66.00000   10.00673             8.39680
303.42487   416.87047   386.00000  31.93735             15.74469
316.19697   311.58081   198.00000  17.76732             14.49768
315.64151   487.72956   159.00000  15.14487             13.46078
320.11673   417.48249   257.00000  20.84105             15.70533
322.75214   465.79487   234.00000  18.90852             15.83433
357.11373   462.87451   255.00000  23.90518             15.06708
436.61047   65.58721    172.00000  18.00699             12.33217
443.35254   947.09153   295.00000  24.81509             15.42398
454.25110   112.07489   227.00000  17.67593             16.54937
454.18713   70.08187    171.00000  17.87267             12.24672
458.14474   193.92105   76.00000   11.69619             8.54869
466.32692   146.80769   208.00000  19.64804             13.57455
471.68981   284.98148   216.00000  21.53530             13.16916
474.60819   660.10526   171.00000  17.36361             12.54746
484.77236   940.00813   246.00000  20.12920             15.72015
488.16783   110.01399   143.00000  15.19878             12.61968
501.91418   255.38060   268.00000  21.60323             15.87072
508.52734   666.74219   256.00000  20.85036             15.69035
505.70879   938.78571   182.00000  15.47854             15.00455
510.90270   299.40541   185.00000  17.23615             13.79323
516.08939   185.16201   179.00000  15.44753             14.86848
519.75472   1044.48302  265.00000  21.03674             16.10079
519.92188   967.86328   256.00000  21.28160             15.50030
516.03333   587.60000   30.00000   6.50274              5.88245
520.56017   998.51452   241.00000  20.75068             15.17764
522.86239   1013.97706  218.00000  20.90418             13.46648
529.47773   681.21457   247.00000  27.47610             11.68805
528.25461   946.19557   271.00000  24.16816             14.47915
528.28505   263.33178   214.00000  18.07382             15.11065
531.82143   666.72024   168.00000  18.23543             11.78748
534.04678   920.76608   171.00000  16.37983             13.64144
535.97970   134.72081   197.00000  17.36197             14.52073
537.87050   930.79856   139.00000  17.29819             10.50380
539.61828   191.98925   186.00000  15.90799             14.96089
545.26147   1231.25688  218.00000  16.90043             16.55478
554.74818   337.67883   274.00000  27.39078             12.87162
557.57721   896.78676   272.00000  23.96958             14.61026
559.93993   987.34982   283.00000  26.57441             13.65801
562.05098   939.85882   255.00000  19.99074             16.46416
564.82741   1014.53807  197.00000  16.88995             15.01189
566.88038   1222.59330  209.00000  18.60681             14.40900
567.15814   286.97674   215.00000  21.83972             12.59066
577.13057   1108.30255  314.00000  24.96083             17.04648
578.94821   999.91235   251.00000  23.25862             14.04838
577.68067   1070.74370  238.00000  18.72633             16.20624
583.97541   690.65164   244.00000  21.40714             14.59101
580.86667   959.25556   90.00000   15.90526             7.30935
585.83628   975.92920   226.00000  20.78822             13.92188
590.43265   793.77551   245.00000  23.80736             13.18951
589.29562   917.68248   274.00000  22.28191             16.66878
588.86574   306.77778   216.00000  18.28114             15.11129
591.78534   152.89005   191.00000  17.09844             14.25830
586.88889   674.05556   18.00000   5.38593              4.22563
588.29268   1205.53659  41.00000   8.30847              6.24045
593.91707   1180.14146  205.00000  17.83710             14.81999
593.70711   865.16736   239.00000  21.41797             14.52288
593.97479   901.96639   119.00000  14.05979             10.78164
600.04380   341.39416   274.00000  22.27959             15.70976
606.21739   881.36685   368.00000  34.96417             13.74731
602.92740   999.52813   551.00000  37.57579             20.65970
600.70161   1160.69355  248.00000  21.20804             15.10613
600.92683   976.41463   41.00000   9.36220              5.52163
609.66667   1197.37107  318.00000  23.04258             17.61937
608.43103   1030.74138  58.00000   9.17536              8.10562
617.93031   1063.62369  287.00000  23.01388             16.61463
617.65537   331.37288   177.00000  15.80864             14.26371
617.33333   1152.20988  162.00000  17.58039             11.79047
618.65946   927.23243   185.00000  18.59085             12.78623
620.87449   1100.41296  247.00000  18.33743             17.24311
620.30270   799.96216   185.00000  16.01316             14.82412
621.31915   971.36702   188.00000  16.89933             14.28844
625.29856   1049.84892  278.00000  26.08321             14.12600
628.89231   707.86667   195.00000  20.23775             12.35934
630.16410   826.01026   195.00000  17.40483             14.31311
628.46524   853.06952   187.00000  16.97361             14.17209
630.74299   1029.79907  214.00000  17.66968             15.80563
632.87008   333.68898   254.00000  23.34809             14.20912
632.07487   796.50802   187.00000  22.52757             10.86774
638.14525   948.08380   179.00000  17.57516             13.12868
641.84549   929.78970   233.00000  19.34082             15.48923
641.59239   1013.79348  184.00000  17.28791             13.66543
645.08065   732.07258   248.00000  22.53847             14.21800
644.64467   756.12690   197.00000  17.16230             14.65509
644.59016   873.26639   244.00000  22.59431             14.50728
645.93158   1071.27368  190.00000  18.16999             13.47236
647.00000   1093.64881  168.00000  16.04507             13.39195
643.30769   701.96154   26.00000   6.30365              5.19935
648.27586   889.04023   174.00000  17.17193             12.97463
649.68293   1203.93902  82.00000   12.73733             8.39248
656.23718   413.09936   312.00000  25.40804             15.87093
655.94760   1049.07424  229.00000  20.91182             14.12655
657.31507   1223.52968  219.00000  17.82410             15.66154
659.74632   859.19853   272.00000  21.79708             15.99606
658.84483   1011.36782  174.00000  18.54179             12.02476
659.85463   45.96476    227.00000  21.59273             13.50361
658.66667   362.90909   165.00000  16.66966             12.65942
664.13919   841.47619   273.00000  21.99541             16.24718
658.66949   686.35169   236.00000  24.95317             12.23438
660.08108   820.00772   259.00000  23.28558             14.42461
662.11032   1177.17438  281.00000  27.34544             13.40371
664.21569   352.18954   153.00000  16.27176             12.01968
663.30204   462.65714   245.00000  21.62213             14.45614
666.56402   541.80793   328.00000  23.96049             17.69718
664.82432   1194.93243  148.00000  14.38422             13.14731
664.35227   1241.80114  176.00000  16.53258             13.63021
668.79781   318.16940   183.00000  17.79124             13.15391
671.47212   693.27138   269.00000  20.13727             17.48941
672.56818   756.93636   220.00000  23.32818             12.03715
670.18000   913.18000   50.00000   9.42404              6.76984
680.29586   626.95266   338.00000  22.45154             19.52470
679.12690   933.32487   197.00000  19.87835             13.11493
676.94758   599.21371   248.00000  22.11191             15.21348
678.56757   905.41892   222.00000  20.76699             13.62215
681.70732   981.79094   287.00000  32.19500             11.85822
679.52941   1020.56863  51.00000   8.17457              7.88577
686.92885   1122.96047  253.00000  22.65714             14.37398
687.91882   1267.74539  271.00000  25.92242             13.77977
682.40000   1219.86667  45.00000   7.94421              7.21730
689.83621   898.21983   232.00000  20.59833             14.57287
687.77273   1007.36364  66.00000   10.03150             8.38123
688.38000   885.16000   50.00000   9.19577              6.93382
694.40256   1058.58786  313.00000  22.34569             19.23385
690.94444   1100.66667  144.00000  16.31114             11.55219
693.79487   922.89744   195.00000  18.18524             14.42875
694.05236   33.94764    191.00000  16.44748             14.85320
694.74061   789.86348   293.00000  27.61101             13.69379
696.34310   955.07950   239.00000  25.34609             12.02826
694.62585   1110.98639  147.00000  15.37054             12.67411
692.43478   601.41304   46.00000   9.43539              6.19972
705.13841   610.95848   289.00000  22.88563             16.27734
703.48138   723.65616   349.00000  23.65475             19.19497
703.05556   1145.73737  198.00000  19.00272             13.29107
704.46479   909.99061   213.00000  20.22215             13.53560
702.65278   1315.77315  216.00000  18.05867             15.28563
707.13889   1074.58333  252.00000  25.06344             13.05328
709.17417   650.84985   333.00000  29.35816             14.57311
701.29825   986.36842   57.00000   9.28226              7.82702
705.78947   776.02105   190.00000  17.69637             13.80375
706.37847   1001.95833  288.00000  24.42368             15.17666
703.07692   919.53846   39.00000   7.52168              6.91512
711.22449   687.72245   245.00000  19.82380             15.83223
708.41518   857.37946   224.00000  24.07307             11.98796
711.06780   1046.25989  177.00000  18.64488             12.72591
719.07473   957.65480   281.00000  26.20665             14.29575
714.95192   1113.27885  208.00000  21.48844             12.73564
718.94565   546.39493   276.00000  23.46513             15.01318
714.77895   1037.20000  95.00000   11.41556             10.84095
717.05530   738.45622   217.00000  19.00605             14.65797
719.19551   1346.82051  312.00000  23.96875             16.69985
717.44253   1308.58046  174.00000  16.36305             13.57322
719.29936   869.47134   157.00000  15.94051             12.69212
722.53036   598.98381   247.00000  21.45836             14.99492
719.13636   915.20455   44.00000   8.22383              6.88489
719.03571   1166.71429  28.00000   6.66075              5.40047
723.43529   325.44706   170.00000  15.11079             14.34283
726.83226   572.08387   310.00000  22.16339             18.16880
731.87582   835.38562   306.00000  27.24153             15.00693
726.64019   1053.98598  214.00000  18.13191             15.08854
726.57083   1222.96667  240.00000  20.28088             15.21144
728.78365   928.87981   208.00000  20.17644             13.31022
731.32226   1163.02326  301.00000  28.28013             14.38527
732.41176   632.77828   221.00000  18.95473             15.19963
730.18280   1144.15054  93.00000   12.90561             9.17861
732.03965   761.26872   227.00000  23.40956             12.82177
728.48387   907.74194   62.00000   9.89570              7.96599
734.89151   724.25472   212.00000  21.70224             12.64961
733.51004   789.75100   249.00000  18.58512             17.42526
730.72059   814.51471   68.00000   10.41587             8.28311
732.44037   1189.71560  218.00000  19.71339             14.12182
733.22603   9.27397     146.00000  14.71832             12.65709
732.90598   26.11111    117.00000  13.41686             11.24815
732.73913   776.13043   92.00000   13.26571             8.84941
735.85484   897.81183   186.00000  19.55126             12.24067
735.10897   964.10897   156.00000  15.53671             12.88509
734.44853   1979.65441  136.00000  15.78103             11.13315
742.60355   363.68343   338.00000  29.28194             15.49613
735.56504   597.13008   246.00000  22.09075             14.26184
740.80270   918.35135   370.00000  25.33392             18.96468
737.44162   1259.61421  197.00000  20.07343             12.68126
744.22182   671.86182   275.00000  26.71051             13.37302
740.86061   1352.10303  165.00000  15.19550             13.86988
738.88679   1273.16981  53.00000   9.30892              7.24231
744.62944   1074.59391  197.00000  19.53503             13.03116
745.40376   626.23005   213.00000  20.54232             13.64143
745.75949   1251.84810  158.00000  16.81877             12.20029
741.69231   1185.11538  26.00000   6.16606              5.34412
748.61026   336.90256   195.00000  18.82886             13.22233
750.38492   1046.54365  252.00000  23.14885             14.80506
751.77857   1126.98571  280.00000  21.11198             17.00116
755.11373   786.99608   255.00000  22.06336             16.93809
752.52709   894.26601   203.00000  17.77123             14.91206
759.55319   737.16667   282.00000  28.00901             14.09587
755.00348   910.47387   287.00000  24.34709             15.52167
753.79186   965.68778   221.00000  19.61584             14.78923
750.23636   3.98182     55.00000   9.91342              7.09592
757.41961   1190.90588  255.00000  20.47573             15.99600
754.25610   799.04878   82.00000   10.75474             9.94273
758.55941   1161.85149  202.00000  18.77157             13.80096
755.88172   761.25806   93.00000   11.95203             9.89566
759.02907   665.41279   172.00000  16.22728             13.80869
765.95177   324.26045   311.00000  25.68728             15.44805
762.32526   1244.68166  289.00000  22.15725             16.71163
763.69080   1453.40705  511.00000  43.00303             15.66151
765.31880   1515.66213  367.00000  26.88541             18.20261
765.25926   712.44444   270.00000  24.13402             15.44147
764.82051   1292.79121  273.00000  30.60742             11.75802
763.29918   1559.93852  244.00000  22.48678             13.88948
761.12500   1262.35000  40.00000   7.62600              6.69583
764.44186   1360.15504  258.00000  26.48816             12.66323
764.41026   654.70513   78.00000   11.90174             8.38238
770.37771   1220.46130  323.00000  22.44114             18.98693
768.99024   28.24390    205.00000  17.93531             14.65658
773.32963   985.10000   270.00000  21.07656             17.12651
771.67027   57.43784    185.00000  19.69766             12.19020
773.27469   1175.70062  324.00000  20.85470             19.90771
773.81731   3.10577     104.00000  15.73218             8.74075
776.99222   613.20623   257.00000  20.64599             15.94407
777.40893   1306.42612  291.00000  22.47597             16.69576
781.07447   923.98227   282.00000  22.20807             16.71069
779.33119   1091.18328  311.00000  26.45787             15.06739
780.87087   555.03303   333.00000  23.03293             19.28790
782.10432   659.61871   278.00000  23.12477             15.46254
784.54751   360.63348   221.00000  18.79532             14.99709
782.00461   1053.18433  217.00000  21.49462             13.05499
787.02151   840.83333   186.00000  16.50455             14.44931
787.70283   30.21226    212.00000  19.63718             13.78070
789.69847   778.79389   262.00000  23.27865             14.85710
791.85714   1344.53175  252.00000  24.59106             14.49523
793.07182   1147.25967  181.00000  19.37651             12.14132
796.00316   822.49684   316.00000  23.40082             18.29010
793.15038   999.23308   133.00000  15.17044             11.16228
794.96970   952.65530   264.00000  24.22112             14.73289
802.15335   881.92971   313.00000  23.16889             18.07332
796.09467   901.44379   169.00000  15.67553             13.74238
799.32618   415.40773   233.00000  19.59686             15.21900
795.42424   1329.42424  33.00000   6.68318              6.22799
800.19620   1159.41139  158.00000  15.80948             12.98499
803.85398   320.44690   226.00000  17.91812             16.14774
803.02073   1136.31088  193.00000  15.96886             15.45516
802.37056   1243.02538  197.00000  18.18997             13.90008
799.28125   1.78125     32.00000   7.86284              5.21004
808.10158   1360.24153  443.00000  35.25974             16.99727
803.93151   671.84475   219.00000  21.01670             13.64628
806.00000   716.70552   163.00000  19.79971             10.87159
807.36036   579.16216   222.00000  21.01046             13.57889
805.53714   1226.94286  175.00000  16.53629             13.59021
807.81651   1663.20642  218.00000  20.32833             13.74462
807.75740   1005.05325  169.00000  16.41344             13.18427
809.71429   1283.33214  280.00000  23.96280             15.01710
810.27559   906.32677   254.00000  21.89408             15.59507
810.31148   1166.90164  122.00000  15.17382             10.62855
808.77899   1328.09420  276.00000  28.24462             12.78979
813.84252   679.68898   254.00000  22.75099             14.41589
812.64251   726.58937   207.00000  19.09413             14.22745
811.11789   762.52439   246.00000  24.06875             13.09409
810.73723   1642.28467  274.00000  24.47358             14.47827
814.22727   1611.98760  242.00000  19.51751             15.88773
816.47826   961.92609   230.00000  22.28992             13.25351
816.04297   518.29297   256.00000  19.90463             16.60279
816.01195   651.53785   251.00000  20.20679             16.08329
814.88557   860.37811   201.00000  19.57140             13.25058
817.25871   1026.97015  201.00000  17.97934             14.31822
825.11373   1149.30980  255.00000  24.04674             15.20462
823.03030   1137.69091  165.00000  18.21163             11.85695
821.82594   1560.26962  293.00000  22.46552             16.74626
823.61371   624.48598   321.00000  22.18076             20.05329
823.29586   1427.13018  169.00000  17.00223             12.68268
824.84911   1507.09172  338.00000  27.59705             16.15418
825.40331   1413.45304  181.00000  16.64320             14.01780
826.67105   790.31579   76.00000   10.42942             9.45379
829.62595   810.43893   262.00000  23.06417             14.88703
830.74766   8.05607     107.00000  13.41888             10.22848
833.01875   885.07500   160.00000  15.32095             13.47118
834.21495   932.13551   214.00000  20.88287             13.12605
843.05664   537.06972   459.00000  38.97540             16.95169
839.17804   1036.12166  337.00000  23.34611             18.49585
837.76786   1017.09524  168.00000  16.34810             13.31733
842.22764   557.43902   246.00000  21.36421             14.94104
839.35593   659.18079   177.00000  22.95999             10.10261
843.21608   1074.69849  199.00000  17.84979             14.25353
844.94981   849.69498   259.00000  29.20267             11.55847
842.78846   808.00000   52.00000   8.61539              7.75474
849.55439   888.16491   285.00000  23.86935             15.94210
847.66460   818.54658   161.00000  14.71408             13.92514
851.79091   1341.01212  330.00000  22.68396             19.16523
851.31174   58.10931    247.00000  19.75751             15.98151
845.84211   1169.13158  38.00000   8.80556              5.47692
850.86207   1012.77586  232.00000  20.94323             14.16639
854.11654   1100.46617  266.00000  27.08081             13.05467
849.01754   1183.21053  57.00000   11.67397             6.24534
852.00826   646.37603   242.00000  26.30427             12.08115
854.22167   175.16749   203.00000  19.42898             13.34051
855.29730   804.90541   148.00000  17.25818             11.26838
858.19502   444.24066   241.00000  20.91146             14.72787
859.22944   849.88745   231.00000  20.10479             15.23777
863.19710   743.20870   345.00000  23.55629             19.82715
863.55513   948.01901   263.00000  27.61152             12.71620
866.67052   661.20231   173.00000  17.08374             13.01832
866.11340   782.53608   194.00000  20.34155             12.61218
865.54396   1139.70330  182.00000  18.50148             12.59831
866.49697   458.45455   165.00000  16.68644             12.90252
873.39677   501.65484   310.00000  27.02664             14.67058
872.81818   1387.85771  253.00000  21.73926             15.10039
870.91234   209.49026   308.00000  25.51415             15.73876
869.97357   704.83700   227.00000  21.55569             13.67366
870.41892   994.87838   148.00000  15.84279             11.96456
876.16393   566.87705   244.00000  19.53885             16.33625
875.52632   624.30526   190.00000  25.13922             9.79323
870.61194   922.80597   67.00000   10.51003             8.14545
876.53086   859.57613   243.00000  20.63050             15.08886
874.93151   834.00000   146.00000  15.37481             12.14661
878.53617   442.07660   235.00000  22.89044             13.21049
878.77143   465.33469   245.00000  20.34127             15.62822
878.67647   68.84706    170.00000  15.02981             14.50385
877.94220   886.12139   173.00000  18.96611             12.79621
877.85075   897.55224   134.00000  16.67887             10.78613
880.62791   1183.18937  301.00000  28.24423             14.11695
877.18919   746.91892   111.00000  13.70804             10.61475
878.18095   844.64762   105.00000  13.25466             10.39110
879.84286   945.42143   140.00000  17.00957             10.48035
881.07458   585.79322   295.00000  25.68341             15.02212
877.42424   684.00000   66.00000   10.63648             8.28932
883.31019   820.60648   216.00000  18.49723             15.02782
883.98649   737.82432   222.00000  22.20075             13.46197
882.94872   1141.89744  156.00000  19.62532             10.35129
889.60000   979.53333   195.00000  27.28103             9.80938
891.97041   416.98817   338.00000  30.44640             14.64229
886.22727   537.55785   242.00000  23.60527             13.14737
884.54321   791.63580   162.00000  16.34068             12.62626
886.45333   964.87333   150.00000  18.31507             10.55778
889.55378   1398.32271  251.00000  19.31201             16.89182
890.32544   840.82249   169.00000  17.43188             12.53688
890.52406   1135.26738  187.00000  19.12157             13.06805
890.84892   673.97842   139.00000  18.91160             9.47357
892.05670   703.18557   194.00000  17.12014             14.71059
892.95417   19.85000    240.00000  19.61976             15.69941
894.89333   632.93778   225.00000  21.56445             13.32572
895.18227   128.00985   203.00000  16.99339             15.23905
895.46111   502.24444   180.00000  16.97842             13.52848
895.13944   906.33068   251.00000  20.75660             15.75293
892.63636   938.67133   143.00000  13.91454             13.10192
894.84545   656.60455   220.00000  23.96946             12.18489
897.81435   807.87342   237.00000  21.37649             14.80198
891.75000   1093.16667  24.00000   6.10304              5.03075
897.25726   1121.66390  241.00000  18.84458             16.45183
901.33503   611.03046   197.00000  20.24626             12.39183
898.34146   1021.39373  287.00000  37.83898             10.61809
899.88333   1368.58333  240.00000  21.23487             14.52647
901.57269   462.05286   227.00000  19.95712             15.21470
900.30818   757.90566   159.00000  16.22067             12.69210
896.52632   480.15789   38.00000   7.54522              6.40121
901.58654   541.75000   208.00000  18.96386             14.22424
898.58491   712.47170   53.00000   10.58848             6.32912
903.22099   580.58011   181.00000  18.74906             12.38283
902.70166   684.66851   181.00000  20.98311             11.12940
901.54762   966.38095   84.00000   13.43862             8.02955
902.78395   872.48148   162.00000  18.09858             11.50996
906.14973   406.16578   187.00000  17.12789             13.95169
908.03292   643.12757   243.00000  22.17202             14.31137
906.65145   1183.04149  241.00000  21.35189             14.73250
906.85535   68.06289    159.00000  16.55065             12.52489
912.06780   496.10169   177.00000  17.29323             13.19151
910.22674   750.83721   172.00000  18.44100             11.95279
913.58515   790.42795   229.00000  22.21576             13.22656
910.21488   818.12397   121.00000  13.57377             11.36143
909.13514   854.75676   111.00000  15.55234             9.26406
913.40187   455.27570   214.00000  20.31711             13.66946
913.56977   912.00000   172.00000  19.03691             11.73474
913.11565   923.27211   147.00000  15.83147             12.49081
913.94762   1294.10476  210.00000  19.54064             13.83581
913.84434   1310.50000  212.00000  18.07054             15.02740
913.48387   900.85484   124.00000  16.67699             9.50999
915.47253   1102.47802  182.00000  19.91040             12.19422
915.98639   1278.04082  294.00000  21.18270             18.12198
914.25373   86.39801    201.00000  20.06219             12.81766
913.88028   729.40141   142.00000  15.86883             11.47286
918.55844   237.33333   231.00000  19.11193             15.45561
919.96610   433.35254   295.00000  21.11376             18.04811
920.56818   577.32955   176.00000  26.75491             8.62339
919.61951   631.00488   205.00000  20.32523             12.91257
917.84848   855.60606   165.00000  19.58829             12.09132
920.21269   889.27239   268.00000  26.08638             13.09809
920.01770   1091.93363  226.00000  20.64275             14.32109
919.63158   1153.16374  171.00000  15.89150             13.87054
920.60829   692.52074   217.00000  20.49825             13.71519
920.52083   741.64583   144.00000  15.35446             12.04178
917.66667   806.87500   24.00000   6.08114              4.93207
925.08416   728.33663   202.00000  19.07179             14.16884
927.86992   536.21545   246.00000  22.83713             14.02628
933.12308   771.85000   260.00000  25.81790             13.03143
940.50000   1002.73288  292.00000  33.80135             12.27755
931.27811   707.00592   169.00000  23.80398             9.45321
931.10638   962.68085   47.00000   8.96414              6.66872
933.32599   1158.66520  227.00000  23.49542             13.03453
939.86850   485.44648   327.00000  27.29660             15.55983
935.20732   555.09756   164.00000  16.41813             12.78128
933.44444   931.33838   198.00000  20.40662             12.58472
934.00662   1788.92715  151.00000  15.25419             12.62050
936.54545   1197.63030  165.00000  15.00542             14.08328
937.50617   17.67078    243.00000  27.29896             11.77618
943.39608   1097.78824  255.00000  28.74454             12.00582
937.35833   598.67500   120.00000  14.53199             10.82021
936.25301   1121.09639  83.00000   13.54506             7.81931
939.42197   823.45087   173.00000  16.52871             13.89331
940.14493   965.15942   138.00000  15.74926             11.64825
944.59406   1071.62706  303.00000  23.37890             17.50844
942.63710   141.24194   248.00000  18.86864             16.88754
940.18140   419.69302   215.00000  18.93972             14.65880
943.89268   1237.49268  205.00000  21.57404             12.34761
942.50588   60.82941    170.00000  15.94057             13.62598
941.03247   708.79221   154.00000  16.92728             11.99268
941.72000   813.97333   75.00000   11.49454             8.48821
944.20889   569.48000   225.00000  19.97350             14.37340
941.96703   789.81319   91.00000   12.10146             9.68803
947.56388   307.21145   227.00000  20.99969             13.89494
946.16045   682.43657   268.00000  21.95697             16.19047
945.70430   1595.65591  186.00000  18.32860             13.12124
948.09135   1615.80288  208.00000  23.06201             11.52940
949.54152   392.23105   277.00000  23.65309             15.06700
948.95722   596.72193   187.00000  16.34021             14.84784
948.83237   738.12717   173.00000  17.32650             12.71964
955.56232   1127.15652  345.00000  30.62041             14.96857
950.76101   665.60377   159.00000  16.10467             12.63145
955.32258   918.35842   279.00000  29.35473             12.45546
949.74457   1028.55435  184.00000  16.07955             14.75924
950.89623   1277.87264  212.00000  18.74308             14.52262
950.01754   1676.41520  171.00000  17.91313             12.21660
949.95122   90.00000    82.00000   11.47748             9.14571
950.12319   959.10870   138.00000  16.58880             10.71787
954.31707   1216.01463  205.00000  18.36181             14.69172
956.53810   1227.41429  210.00000  24.17776             11.45675
953.79574   828.16596   235.00000  20.01345             15.07953
951.15942   492.43478   69.00000   9.88403              8.91698
953.80682   771.20455   176.00000  21.16913             11.09715
961.28112   1038.46586  249.00000  24.38443             13.31921
957.01210   320.34677   248.00000  23.05804             13.98202
965.19408   893.24671   304.00000  34.94793             11.32822
960.76667   1387.09630  270.00000  24.13329             14.40480
957.76543   1829.30864  81.00000   13.72459             7.72660
959.18288   573.78210   257.00000  20.71549             16.16121
960.14208   865.39891   183.00000  20.29096             11.63790
965.77377   227.32459   305.00000  28.14569             14.03569
962.70632   693.99628   269.00000  21.25749             16.78297
961.90572   458.97643   297.00000  24.05930             15.98197
960.19580   1140.18881  143.00000  15.76903             11.58731
962.45122   1177.79268  164.00000  14.69699             14.25053
963.09524   1742.46429  252.00000  25.82689             12.52477
966.09692   717.88987   227.00000  19.93070             14.68225
963.92593   955.41358   162.00000  15.19260             13.70373
962.95683   1466.16547  139.00000  14.96817             11.85298
964.40000   798.42564   195.00000  19.16437             13.03984
963.76531   910.73469   98.00000   12.56808             9.94038
961.47727   1197.15909  44.00000   8.36473              6.78098
965.42857   1524.15331  287.00000  27.65599             13.35232
963.63291   1600.83122  237.00000  35.85344             9.52296
967.33854   668.94271   192.00000  18.74316             13.13929
968.90123   1437.23457  162.00000  16.27838             12.73675
971.43575   607.56425   179.00000  19.21669             12.48083
972.05936   1275.76712  219.00000  19.38925             14.50966
973.79894   595.38624   189.00000  20.88445             11.80806
972.92593   1107.97884  189.00000  20.90065             11.59726
968.51724   855.10345   29.00000   6.70688              5.47853
976.41341   1238.45531  358.00000  22.82842             20.39297
973.73864   65.46591    176.00000  16.22196             13.91892
975.65984   652.30738   244.00000  21.31220             15.03659
976.03111   539.97333   225.00000  18.00420             16.26065
974.92350   1548.66120  183.00000  15.46191             15.12225
975.16149   319.31677   161.00000  17.27706             11.90030
977.74332   927.96791   187.00000  17.73218             13.55861
974.93919   1213.35811  148.00000  17.96999             10.80269
974.87333   633.45333   150.00000  19.31343             10.43486
978.45223   1584.05732  157.00000  18.13527             11.08697
982.08738   497.48058   206.00000  22.40790             11.81453
977.36170   844.65426   188.00000  20.41449             11.85408
981.30573   718.07643   157.00000  17.31960             11.59383
979.21693   1046.02116  189.00000  17.75817             13.68092
983.33460   1504.68441  263.00000  20.52910             16.33839
982.00645   753.19355   155.00000  15.07429             13.12120
987.70609   982.11111   279.00000  27.29638             13.42101
985.47273   385.04416   385.00000  26.33052             19.75620
983.63889   444.74537   216.00000  18.92774             14.68768
986.26457   994.96413   223.00000  23.34193             12.66984
986.85981   263.09346   321.00000  29.89456             14.10655
990.88087   468.90975   277.00000  27.39481             13.10046
984.12338   630.00649   154.00000  15.25019             13.08982
988.01053   696.19474   190.00000  19.44854             12.50215
986.13636   865.44697   132.00000  13.99478             12.07241
988.59751   405.08714   241.00000  19.34881             15.94198
988.32727   778.70000   110.00000  14.65429             9.70041
990.28384   1214.71616  229.00000  20.45217             14.47373
987.17308   1395.18269  208.00000  20.16181             13.18025
989.33566   921.41958   143.00000  15.65254             11.90643
990.41150   851.52212   226.00000  19.65292             14.88961
998.34036   326.44277   332.00000  29.33884             14.99482
993.69136   682.88889   162.00000  19.69060             10.51234
993.86466   1263.08647  266.00000  25.36012             13.65527
993.05612   212.43878   196.00000  17.92964             13.98722
994.34524   528.67460   252.00000  22.61518             14.78095
991.84536   802.18557   194.00000  18.86073             13.14625
990.42169   1044.20482  83.00000   13.58341             7.83712
995.57692   647.63846   130.00000  16.21658             10.71618
999.78889   903.78333   180.00000  22.91553             10.33188
995.69853   1052.80882  136.00000  14.70489             12.04737
997.22172   613.89593   221.00000  17.61607             16.11354
996.50345   1107.90345  145.00000  14.00055             13.26445
997.58639   195.99476   191.00000  16.45727             14.84904
999.38217   446.33439   314.00000  23.55755             17.04393
1000.63721  974.11628   215.00000  20.06045             13.73843
1001.76923  546.38057   247.00000  22.98930             14.27375
1001.60684  659.58974   234.00000  22.93566             14.05980
1002.85174  1461.73186  317.00000  27.50942             14.81201
1000.96078  1062.84314  153.00000  15.47196             12.75988
1001.92537  1096.81095  201.00000  23.16079             11.24983
999.17323   770.16535   127.00000  13.45969             12.26342
1001.25850  808.23810   147.00000  19.37757             10.06660
1002.70588  1138.04575  153.00000  19.16635             10.40699
1002.80405  476.25676   148.00000  15.84948             11.97251
1005.88255  563.75168   298.00000  23.32952             16.47866
1000.11475  924.44262   122.00000  16.35310             10.03198
1003.63194  823.44444   144.00000  14.68226             12.67074
1006.41525  778.92373   118.00000  15.87195             9.79148
1004.00000  1000.36667  90.00000   12.32609             9.50583
1006.06767  1008.76692  133.00000  17.03106             10.35355
1006.60569  1427.99593  246.00000  19.32785             16.72771
1005.98462  68.37692    130.00000  13.58538             12.17781
1009.62553  588.71064   235.00000  22.06036             13.84057
1010.10909  175.61364   220.00000  17.10274             16.42529
1007.39796  706.37755   98.00000   14.77483             8.86589
1006.89157  918.12048   83.00000   11.05015             9.69308
1008.13971  691.00735   136.00000  14.65772             11.88733
1010.65385  764.90110   182.00000  15.79155             14.75602
1012.30435  845.92885   253.00000  24.28435             13.70309
1011.62857  1217.24762  210.00000  19.94188             13.61406
1010.44068  713.84746   118.00000  15.17430             9.97744
1012.78488  879.36047   172.00000  18.76567             11.86386
1013.87845  1147.56354  181.00000  18.49024             12.50230
1014.91304  1307.93623  345.00000  40.79602             11.26688
1012.20000  632.68696   115.00000  12.74714             11.49207
1016.97973  864.85135   148.00000  20.23252             9.35276
1022.55623  949.89970   329.00000  34.00426             12.55783
1014.31132  1351.00943  212.00000  19.58340             13.98094
1016.58366  820.48249   257.00000  22.02508             15.30522
1017.16556  1017.66225  151.00000  16.47238             11.81702
1015.76667  1230.12778  180.00000  16.53646             13.96471
1021.81057  429.50661   227.00000  21.94734             13.86576
1016.10588  754.75294   85.00000   13.13810             8.26467
1017.40171  651.39316   117.00000  13.40252             11.23187
1018.02174  803.53804   184.00000  16.30264             14.64128
1020.91860  95.11047    172.00000  18.29847             12.08612
1019.55725  923.48092   131.00000  13.84766             12.09129
1020.88384  148.57576   198.00000  18.04853             14.06347
1027.08042  303.42308   286.00000  26.96878             13.71070
1023.62000  544.84000   200.00000  19.56228             13.14067
1020.82292  660.54167   96.00000   11.64885             11.04271
1019.86957  720.82609   92.00000   11.98574             9.90054
1021.77391  182.50435   115.00000  13.20146             11.33977
1026.83083  886.72932   266.00000  25.26397             13.79700
1026.41946  526.99329   298.00000  23.43461             16.61900
1024.96933  1130.93252  163.00000  23.16270             9.03382
1026.01796  627.89820   167.00000  17.14110             12.48710
1026.25926  676.27407   135.00000  14.92546             11.59908
1026.87831  728.74603   189.00000  17.73908             13.81024
1028.06835  1066.22662  278.00000  24.72641             14.54426
1030.35223  599.00810   247.00000  22.45125             14.33646
1029.48936  1384.01064  376.00000  34.38048             14.12181
1029.79891  910.29348   184.00000  17.49053             13.42174
1030.21019  1581.81529  157.00000  17.70224             11.33517
1033.88119  176.72772   202.00000  20.69347             12.82603
1037.67751  583.19527   338.00000  25.25308             17.58855
1031.98718  713.30128   156.00000  15.26896             13.03914
1028.27869  1017.90164  61.00000   10.02070             7.88179
1033.97244  1558.29921  254.00000  21.88627             14.90716
1034.44528  121.31698   265.00000  20.37936             16.61120
1035.64953  1277.92523  214.00000  20.62705             13.58611
1032.28082  1970.50000  146.00000  14.35557             12.97198
1034.70000  1002.29474  190.00000  19.50334             12.44230
1034.03483  1196.12935  201.00000  16.23160             15.80885
1041.53659  967.96452   451.00000  28.46408             20.31762
1036.03311  757.64238   151.00000  15.52403             12.41716
1034.64350  832.26888   331.00000  35.23494             12.26387
1034.61702  929.21277   47.00000   8.87452              6.99251
1038.20741  63.43704    135.00000  13.26432             13.02258
1043.23630  404.45205   292.00000  23.53753             16.44291
1044.26255  768.50965   259.00000  22.40348             14.99160
1040.95745  1061.92199  141.00000  15.75157             11.56861
1040.88489  1080.66187  139.00000  14.33074             12.40614
1045.65428  917.32714   269.00000  26.29124             13.24354
1040.56190  1160.71429  105.00000  14.96785             8.99554
1046.39894  1344.54255  188.00000  20.82648             11.66654
1049.72016  187.04938   243.00000  23.28784             13.43625
1047.51630  870.80978   184.00000  15.80476             14.90171
1047.06250  933.15278   144.00000  16.02935             11.63622
1044.90625  1016.40625  64.00000   9.89271              8.23729
1050.18932  1093.01456  206.00000  19.85616             13.43054
1050.36620  524.12676   142.00000  15.41006             12.08016
1058.96276  684.35196   537.00000  31.96769             21.74722
1052.29344  377.40154   259.00000  20.38776             16.29351
1052.86740  541.79558   181.00000  17.63673             13.13409
1053.50000  1071.34177  316.00000  27.12607             15.53041
1047.00000  1116.35294  34.00000   7.15511              6.01856
1056.29528  513.00787   254.00000  24.29555             13.69692
1051.46328  704.64972   177.00000  16.48446             13.94160
1056.40551  93.54331    254.00000  21.55098             15.11988
1055.64286  885.97449   196.00000  18.61010             13.74181
1058.22581  1007.32796  186.00000  24.88759             9.89874
1058.23750  129.73750   240.00000  18.08932             16.95400
1056.97719  1269.47529  263.00000  27.17798             12.56712
1061.31785  598.52078   409.00000  29.50047             17.85601
1057.15217  996.10870   138.00000  14.19161             12.47413
1060.36301  1180.85274  292.00000  25.26268             15.15036
1062.30579  711.00000   242.00000  23.38749             13.73270
1060.26515  727.21970   264.00000  21.15842             16.07180
1057.28931  822.35849   159.00000  19.81357             10.23016
1055.16667  846.60000   30.00000   6.61685              5.80915
1058.26573  1198.87413  143.00000  15.29952             11.96540
1067.78814  1578.05508  236.00000  29.64770             10.40420
1060.35821  1044.52239  67.00000   9.72643              8.93048
1067.04464  1020.86607  224.00000  21.46741             13.47389
1065.50165  1306.27393  303.00000  23.29064             16.96013
1064.90204  1564.52653  245.00000  21.90793             14.31398
1063.27011  1597.87931  174.00000  16.60780             13.40180
1062.99130  1938.15652  115.00000  18.20219             8.77001
1066.30000  1422.69630  270.00000  26.15485             13.24864
1064.44915  381.33898   118.00000  12.58559             12.09822
1067.00621  840.33540   161.00000  21.54145             9.77530
1068.56219  826.45274   201.00000  21.35662             12.15964
1067.60410  1510.46075  293.00000  24.77202             15.88929
1069.66270  474.19048   252.00000  19.17296             16.99943
1069.68724  664.69547   243.00000  21.16622             15.17972
1067.94718  931.16549   284.00000  24.11694             15.94984
1073.23171  959.19106   246.00000  26.70342             11.82067
1068.22165  1124.27320  194.00000  16.14793             15.38061
1070.51497  850.97006   167.00000  16.72667             12.95721
1074.42949  880.95833   312.00000  30.28590             14.86143
1070.51852  1042.55556  108.00000  14.94385             9.46125
1071.05674  1448.54610  282.00000  28.63674             13.02782
1067.40741  755.25926   27.00000   6.64594              5.17368
1071.91620  1153.55866  179.00000  17.77720             12.93665
1074.83974  1032.37179  156.00000  18.35267             11.22922
1073.92742  1615.88710  248.00000  23.45091             13.54415
1075.41921  1646.49782  229.00000  19.08687             15.40110
1076.39634  386.94512   164.00000  17.94216             11.66212
1078.74632  447.87500   272.00000  21.03348             16.59611
1080.14829  1137.09886  263.00000  25.32041             13.94871
1078.37912  1355.51648  182.00000  17.36910             13.64741
1076.05128  1051.37179  78.00000   10.63990             9.34936
1086.16727  697.44364   275.00000  25.66263             13.71078
1084.04167  1389.15278  216.00000  19.23109             14.79192
1082.77193  759.04094   171.00000  15.82282             13.79237
1083.72000  1071.41778  225.00000  21.36676             13.52927
1090.79137  544.42446   278.00000  26.21259             13.97933
1089.20285  739.20996   281.00000  23.27711             15.47956
1084.47739  1164.19095  199.00000  17.20635             14.87007
1084.38863  1270.45024  211.00000  22.80066             11.92893
1088.04933  33.36771    223.00000  20.49644             13.97783
1089.45652  630.09783   184.00000  21.78815             11.11431
1087.09392  931.82873   181.00000  18.96928             12.20986
1087.74839  1239.70000  310.00000  26.27516             15.50406
1089.28251  1013.42152  223.00000  19.21184             15.38579
1091.18483  1109.51185  211.00000  21.50768             12.79880
1089.06404  710.84729   203.00000  27.92664             9.67444
1089.49029  833.39806   206.00000  17.81936             14.77506
1095.66426  522.68231   277.00000  32.23213             11.30269
1092.91556  723.41333   225.00000  22.46826             12.87447
1094.12821  208.62271   273.00000  21.40705             16.33632
1093.54286  1836.23810  210.00000  19.58594             13.89851
1096.13818  647.71273   275.00000  24.15840             14.71957
1090.43478  1193.08696  23.00000   6.02826              4.80866
1095.36601  783.85621   153.00000  15.61771             12.49909
1096.22388  622.82090   67.00000   10.98416             7.82287
1100.65217  477.65700   207.00000  19.89168             13.32321
1102.08284  863.55621   169.00000  22.30519             10.22115
1104.56401  337.13841   289.00000  24.14351             15.49860
1105.37662  396.92532   308.00000  26.60738             15.41379
1101.80889  905.81778   225.00000  18.89285             15.35789
1098.08571  917.77143   35.00000   7.29660              6.13937
1105.46119  928.14612   219.00000  24.52751             11.75508
1101.08571  1006.02857  175.00000  18.70871             11.97434
1098.55000  759.47500   40.00000   8.13636              6.27293
1104.74757  955.33981   206.00000  21.71225             12.16563
1107.36201  1020.48387  279.00000  24.31610             14.68777
1104.17228  1453.74157  267.00000  22.93172             14.89416
1103.17419  1995.01290  155.00000  15.04544             13.10349
1107.40265  670.11947   226.00000  21.82561             15.40851
1105.84295  1417.54167  312.00000  25.97843             15.47973
1108.63060  494.32836   268.00000  20.31062             16.89971
1107.55233  604.51163   172.00000  19.19301             11.45064
1105.32323  851.81818   99.00000   13.61658             9.45506
1108.42289  1557.53731  201.00000  18.95002             14.88608
1109.16901  624.80986   142.00000  17.57207             10.53718
1106.50000  739.88372   86.00000   12.33764             9.00821
1108.50340  1913.48299  147.00000  15.00152             12.75131
1113.57647  215.75294   255.00000  19.29840             17.02247
1117.54874  585.32852   277.00000  30.86217             11.54116
1113.50505  1274.65657  198.00000  22.32091             11.54922
1113.44344  1144.38009  221.00000  21.65019             13.17690
1109.17886  1480.39024  123.00000  17.36934             9.12469
1111.85455  1382.47273  110.00000  12.54028             11.18400
1111.81944  880.15278   72.00000   10.99076             8.38500
1118.94224  807.35740   277.00000  23.93963             14.79740
1113.06316  1164.21053  190.00000  22.94168             10.61781
1116.60116  410.87861   173.00000  16.89779             13.06836
1124.86885  449.64590   305.00000  27.06765             14.57637
1117.94764  1071.62827  191.00000  16.44784             14.93474
1118.03463  1358.83117  231.00000  26.30880             11.54154
1122.21552  1826.43534  232.00000  19.33328             15.47970
1125.69403  558.44776   268.00000  25.27559             13.93450
1120.55864  747.12037   324.00000  29.43974             14.43854
1122.41892  1103.33333  222.00000  20.63255             13.88954
1121.75576  1537.23502  217.00000  18.46757             14.98032
1123.80992  1634.44628  242.00000  23.73109             13.31920
1121.31579  1501.69298  114.00000  13.07746             11.12839
1122.42697  1317.66292  178.00000  20.94903             10.84720
1124.31293  1486.19048  147.00000  17.36873             10.82529
1121.81481  1002.74074  27.00000   6.27036              5.59953
1130.14338  965.65441   272.00000  28.20805             13.07472
1132.84706  724.92549   255.00000  22.42173             14.71357
1130.05634  1156.80751  213.00000  20.99470             13.46763
1129.36310  1979.72024  168.00000  15.50267             13.86056
1131.57542  860.97207   179.00000  17.21101             13.25856
1136.76404  701.30337   178.00000  19.70367             11.54414
1134.58108  755.97973   148.00000  15.26916             12.48721
1134.38866  1034.70445  247.00000  26.99877             12.03826
1133.06923  1919.79231  130.00000  15.03412             11.10131
1138.30126  796.95816   239.00000  21.18252             14.68543
1136.27273  654.61538   143.00000  15.59805             11.74900
1145.17787  1679.35573  253.00000  22.16768             15.16939
1142.91038  231.32075   212.00000  18.52133             14.70262
1144.24852  1026.25444  169.00000  25.43375             8.58787
1144.30000  1207.18235  340.00000  30.43758             15.11542
1140.53333  641.84444   45.00000   8.29619              6.89052
1144.93636  711.12727   110.00000  14.17573             9.89569
1153.79386  1139.67105  228.00000  32.53105             9.57079
1144.65839  1606.50311  161.00000  16.97456             12.16489
1147.22941  753.12353   170.00000  15.46839             14.05938
1146.35965  1004.69298  114.00000  13.27776             11.21640
1147.31884  647.70290   138.00000  15.35030             11.63935
1148.56835  1543.85612  139.00000  16.24292             10.96852
1148.53509  1853.98246  114.00000  13.98077             10.37986
1151.93846  1010.80000  65.00000   11.94335             7.40336
1153.29545  1838.56250  176.00000  16.86588             13.33113
1153.87013  868.76623   77.00000   11.07736             9.00172
1161.10455  390.63636   440.00000  36.09052             18.70105
1157.42489  453.46352   233.00000  20.57874             14.46234
1156.16471  1146.82353  85.00000   14.15055             7.71593
1158.18785  742.54696   181.00000  17.36649             13.39142
1159.56299  932.60630   254.00000  28.98769             11.77099
1157.61712  1258.12162  222.00000  23.78830             12.01363
1162.25461  1494.79336  271.00000  22.10232             16.62555
1164.09375  292.61719   384.00000  25.82892             19.10514
1161.02685  647.87248   149.00000  16.58069             11.63326
1160.74405  702.87500   168.00000  17.20289             12.54707
1162.57009  1272.19626  214.00000  19.12813             14.80209
1161.62500  1766.98077  208.00000  18.51915             14.71841
1163.26962  322.25939   293.00000  26.13075             14.49569
1161.77489  556.19048   231.00000  18.39815             16.30220
1169.53550  919.50592   338.00000  41.06997             10.65017
1159.82781  1013.19205  151.00000  18.84343             10.45678
1164.44221  579.47739   199.00000  17.88948             14.29148
1163.51370  871.34247   146.00000  15.45194             12.33612
1164.70440  1044.92453  159.00000  19.89161             10.28975
1164.54795  1054.43151  146.00000  17.74678             10.73760
1162.91803  1024.45902  61.00000   9.91475              8.14556
1167.21667  688.52778   180.00000  17.20566             13.71138
1164.91892  1780.32432  111.00000  14.46868             9.80001
1169.99519  623.86538   208.00000  18.52364             14.52478
1174.25339  1821.37104  221.00000  23.42845             12.17611
1174.09859  663.42254   142.00000  13.90010             13.07187
1173.90265  707.82301   113.00000  14.45618             10.07203
1175.43320  762.08907   247.00000  25.08867             13.40418
1182.09574  635.86170   188.00000  19.77949             12.28647
1181.25517  1738.04138  145.00000  15.90106             11.65914
1184.01000  674.21500   200.00000  18.76640             13.69822
1183.75265  1506.50530  283.00000  25.67604             14.29183
1185.83962  598.98113   106.00000  14.85283             9.10084
1185.62771  1333.15152  231.00000  29.16373             10.29521
1187.25439  1596.54386  228.00000  18.44345             15.78032
1186.72872  1058.73404  188.00000  25.94548             10.33129
1187.63285  1549.61836  207.00000  17.77787             14.97699
1189.75159  1639.93312  314.00000  21.35727             19.05621
1189.29358  1183.16055  218.00000  17.80648             15.91837
1189.72637  890.94030   201.00000  17.58184             14.61656
1188.96988  1014.50000  166.00000  15.52931             13.60482
1188.27848  1084.82911  158.00000  16.48785             12.23244
1189.76894  1364.37500  264.00000  22.58080             14.99000
1185.84000  339.30000   50.00000   9.56393              6.82068
1191.94372  754.21212   231.00000  21.45429             14.00924
1194.09804  1446.30065  153.00000  15.09020             13.08867
1196.02410  994.95783   166.00000  17.10424             12.55485
1195.79630  1703.78704  108.00000  15.74186             9.09969
1197.78947  596.88947   190.00000  18.24481             13.70790
1200.01695  1058.87006  177.00000  20.50805             11.14585
1196.28667  1783.36000  150.00000  14.81906             12.96740
1202.63590  953.61538   195.00000  20.13695             12.50989
1203.51812  968.75362   276.00000  23.92180             14.88273
1197.47619  1464.59524  42.00000   8.38335              6.35786
1201.44841  1505.75397  252.00000  21.19999             15.16973
1203.63793  899.51149   174.00000  16.67451             13.35627
1204.80793  1247.30488  328.00000  26.20111             16.25587
1202.50000  1417.70886  158.00000  15.62685             13.19244
1209.83209  659.63806   268.00000  23.13805             15.11330
1205.01852  1098.04938  162.00000  17.54883             11.92752
1212.21839  512.51724   348.00000  28.49207             16.13691
1202.94118  584.54902   51.00000   8.66980              7.46991
1203.48387  612.01613   62.00000   9.45932              8.31225
1207.79904  1379.50718  209.00000  18.27733             14.67772
1206.35500  1449.59500  200.00000  23.23743             11.42019
1205.23585  1432.64151  106.00000  15.95990             8.75642
1209.75000  747.86719   128.00000  14.88792             11.00875
1214.13873  689.70231   346.00000  23.89048             18.82700
1212.31980  1696.07107  197.00000  20.68424             12.29785
1212.62500  1745.83553  152.00000  15.63129             12.43641
1215.43243  404.79923   259.00000  19.62536             16.91302
1214.10334  621.00608   329.00000  29.30999             14.60771
1210.96429  773.89286   112.00000  14.51327             10.15682
1213.47368  1115.82237  152.00000  15.16761             12.81678
1212.12500  1783.46154  104.00000  12.16574             11.03272
1219.07879  237.33030   330.00000  26.12899             16.21038
1217.31868  1155.14835  182.00000  16.59060             14.08160
1219.22143  728.10000   140.00000  15.63035             11.54886
1221.02632  816.74561   228.00000  18.27068             15.97407
1220.80556  1319.76852  216.00000  20.22573             13.79661
1224.11458  841.41319   288.00000  21.14474             17.66863
1222.42328  984.58201   189.00000  20.57575             12.46425
1220.55307  1195.43017  179.00000  16.95933             13.49161
1222.35855  1392.82237  304.00000  31.75586             12.88832
1225.74409  718.90157   254.00000  24.01586             13.84462
1219.83529  773.58824   85.00000   12.05625             9.03945
1218.92593  900.01852   54.00000   9.46692              7.22565
1218.00000  1409.75610  41.00000   7.23137              7.16525
1222.78090  1143.05056  178.00000  19.14506             11.92229
1224.37766  746.95213   188.00000  16.95962             14.13346
1226.97872  1627.54787  188.00000  16.74343             14.35851
1226.24713  1222.63218  174.00000  19.25897             11.55183
1227.48990  1345.55051  198.00000  25.05577             10.17645
1228.85906  1007.38926  149.00000  15.41202             12.44138
1228.25532  1983.78723  94.00000   14.29470             9.54389
1232.46875  1441.02734  256.00000  23.88803             14.38392
1230.31068  1737.33010  103.00000  12.62648             10.44648
1237.64583  998.60764   288.00000  23.75758             17.43389
1233.86957  1484.67984  253.00000  24.31135             13.72322
1239.89055  1080.60199  201.00000  22.82732             11.31934
1238.56349  1750.60317  126.00000  13.41098             12.08855
1239.46597  894.39791   191.00000  17.78191             13.86454
1240.88584  1639.56621  219.00000  21.53526             13.15900
1237.62069  765.93103   29.00000   6.31710              5.86565
1241.37436  778.19487   195.00000  18.61850             13.42172
1245.29260  957.01286   311.00000  27.22283             14.70224
1243.44974  881.56614   189.00000  17.56898             13.89010
1244.70776  1462.71689  219.00000  22.03959             12.68698
1245.52281  1235.27719  285.00000  22.82637             16.67206
1242.86989  1532.00000  269.00000  27.67173             12.79104
1246.27919  653.92893   197.00000  21.40033             11.96218
1243.56098  974.92683   41.00000   7.96353              6.56286
1247.79221  1253.90909  154.00000  17.71719             11.12293
1244.90909  668.56818   44.00000   7.81091              7.30263
1251.18596  1191.77193  285.00000  22.32348             16.50889
1251.85526  1397.88158  304.00000  30.70572             13.33256
1252.12712  911.45763   236.00000  19.04595             15.93254
1252.14103  1722.06410  156.00000  16.83300             11.86935
1251.10317  1700.00794  126.00000  14.78746             10.85918
1253.52336  1426.60748  107.00000  13.12419             10.57821
1255.25962  162.00962   208.00000  18.34762             14.56472
1258.00755  1068.30943  265.00000  19.80459             17.42423
1257.92929  1665.45455  297.00000  21.87461             18.00714
1258.27885  680.19231   208.00000  19.00647             14.90467
1258.68391  1135.60345  174.00000  18.58329             12.45016
1261.96949  1778.33220  295.00000  20.75990             18.47339
1255.93939  1022.60606  33.00000   6.69508              6.35545
1260.28205  1575.20513  195.00000  18.84690             13.22690
1262.19365  807.96190   315.00000  33.05158             12.55230
1268.34451  588.19512   328.00000  26.88658             16.23963
1262.00000  1145.71818  110.00000  12.74904             11.22863
1263.90148  1524.91626  203.00000  19.43798             13.77031
1263.84390  1803.90244  205.00000  20.52586             12.87845
1260.53968  854.44444   63.00000   10.02153             7.96434
1265.51568  992.70383   287.00000  24.53963             16.01682
1264.77604  1238.10938  192.00000  17.65929             14.10634
1265.67939  1363.68702  131.00000  15.20120             11.05580
1262.21569  1420.31373  51.00000   8.27330              7.83019
1267.20112  1439.11732  179.00000  19.09539             12.09997
1271.57627  1265.69492  177.00000  18.68785             12.16580
1270.98661  1314.21875  224.00000  19.08068             15.65756
1276.83333  426.06333   300.00000  24.53058             15.71864
1272.88931  774.62977   262.00000  25.93789             13.05351
1268.61538  845.38462   26.00000   6.74822              4.85530
1274.10204  1088.37959  245.00000  21.35809             14.75365
1273.88591  864.61745   149.00000  14.72164             12.89290
1271.48936  1410.02128  47.00000   9.41392              6.45500
1275.86598  1482.83505  194.00000  16.81237             15.22893
1278.46939  1611.81378  392.00000  27.55637             19.55513
1277.19718  1649.18779  213.00000  17.11913             15.89823
1277.64211  1300.04211  190.00000  19.25594             12.61639
1278.19795  1379.30034  293.00000  28.94710             13.81183
1280.77987  1151.58491  318.00000  39.67253             10.69732
1279.86885  1492.78689  122.00000  17.64766             8.85313
1284.74021  92.13879    281.00000  24.03026             15.12576
1282.27222  1017.34444  180.00000  16.15323             14.25756
1283.29379  1105.42938  177.00000  17.02779             13.41411
1283.92164  1427.38060  268.00000  20.29472             17.00503
1285.48507  876.25373   268.00000  20.05320             17.15947
1283.59119  1708.14465  159.00000  15.32790             13.25261
1287.01389  900.57407   216.00000  17.78361             15.76284
1285.12438  1261.59701  201.00000  20.31983             12.69700
1286.09877  729.75309   162.00000  16.71060             12.57548
1290.42366  60.43130    262.00000  19.77792             17.00811
1288.51630  1049.55435  184.00000  16.15136             14.57050
1289.25926  704.35979   189.00000  17.71132             13.71627
1287.37500  860.10417   48.00000   8.43110              7.22216
1291.32168  916.69231   143.00000  16.32762             11.22935
1293.09326  792.45596   193.00000  19.47377             12.77875
1289.25714  1559.88571  70.00000   10.69180             8.31289
1295.82061  248.98855   262.00000  21.99304             15.37530
1294.85156  753.28516   256.00000  19.69754             16.92752
1292.44521  1473.09589  146.00000  14.87550             12.52519
1294.44397  1358.75431  232.00000  20.51647             14.79712
1296.84916  1659.88827  179.00000  15.27439             14.95041
1297.56081  994.70946   148.00000  14.80266             12.77714
1298.90367  1494.93119  218.00000  18.91544             14.75427
1300.55118  1577.05118  254.00000  19.62609             16.51987
1301.21277  647.25000   188.00000  16.48179             14.60649
1302.04074  954.32593   270.00000  22.89690             15.20400
1300.26966  1068.20225  178.00000  18.93760             12.08950
1300.33951  735.03704   162.00000  16.62708             12.44822
1302.94958  99.84454    238.00000  18.78914             16.23213
1308.23599  453.52507   339.00000  26.18027             17.00891
1307.09901  1465.74917  303.00000  27.06776             15.03904
1304.73810  1197.89286  252.00000  23.83621             13.63987
1306.99552  1739.11659  223.00000  18.52252             15.63768
1311.88288  1083.86486  222.00000  21.48600             13.53949
1308.52157  1335.26275  255.00000  22.52003             14.58508
1306.30682  1707.51136  88.00000   11.24629             10.02787
1306.09091  1560.31818  22.00000   5.89536              4.73304
1311.01325  809.67550   151.00000  19.50197             10.02110
1312.96094  1003.89062  256.00000  23.63455             15.11017
1313.90295  1536.67511  237.00000  19.79529             15.53853
1313.16346  1625.72596  208.00000  17.33232             15.41852
1310.40000  1551.64615  65.00000   10.49815             7.98042
1318.54378  706.81797   434.00000  27.97340             20.35869
1317.21930  855.08333   228.00000  17.84661             16.35527
1318.17788  1070.23558  208.00000  20.01540             14.01062
1314.02273  1021.25000  44.00000   8.16635              6.81794
1318.47308  1684.55000  260.00000  24.63983             13.60869
1316.82759  1929.20690  116.00000  12.82851             11.67637
1317.75723  1364.59538  173.00000  18.80606             11.77612
1317.23577  1409.26829  123.00000  17.74731             8.91513
1321.71429  810.27551   196.00000  22.63787             11.33291
1316.78378  1037.91892  37.00000   8.46749              5.54975
1320.59615  1045.83974  156.00000  14.49473             13.81230
1324.84653  1251.96040  202.00000  19.71265             13.12241
1320.56667  1557.78333  60.00000   10.38359             7.35020
1325.53529  832.78824   170.00000  15.54498             14.16930
1327.02620  1573.68122  229.00000  20.99259             14.04724
1325.80702  731.09942   171.00000  15.97822             13.67077
1329.35200  1409.33600  250.00000  23.76315             14.38569
1328.84513  940.00000   226.00000  18.18580             16.17190
1327.27174  1520.71196  184.00000  17.27761             13.56855
1328.76650  1861.45178  197.00000  17.94027             14.09246
1327.33906  1454.25322  233.00000  23.45894             12.70926
1327.71429  1550.86735  98.00000   11.32005             11.00943
1337.92857  1201.55172  406.00000  37.27180             14.54563
1332.99571  1236.82403  233.00000  21.60962             13.89215
1333.80435  1094.41304  230.00000  20.24499             15.08751
1335.56338  847.48357   213.00000  21.21983             13.02714
1341.55449  479.51923   312.00000  23.89895             16.75975
1342.21782  800.72277   202.00000  17.10336             15.12918
1348.20721  309.99099   333.00000  25.28670             16.96178
1346.87455  1268.35484  279.00000  21.31907             16.97578
1347.51339  1883.63393  224.00000  19.34282             14.82256
1346.79424  1122.83539  243.00000  19.20154             16.16277
1351.00766  1302.02299  261.00000  22.86061             15.11501
1346.95028  1473.43646  181.00000  20.18978             11.50658
1347.19048  1636.65079  189.00000  18.80188             13.18088
1350.20588  881.59314   204.00000  20.72246             12.76476
1352.26190  858.34127   252.00000  19.83159             16.52514
1349.33117  1622.79221  154.00000  15.26167             13.14700
1351.01053  1085.69474  190.00000  15.74702             15.42560
1353.47525  1228.32178  202.00000  18.33737             14.24312
1356.30180  1422.05405  222.00000  21.14871             13.59462
1357.87805  1143.31359  287.00000  22.19786             16.84178
1357.95971  1599.55678  273.00000  22.51599             15.91508
1356.35433  910.83465   127.00000  12.94645             12.65994
1363.60000  934.12667   300.00000  26.25030             14.90766
1363.47273  1684.32121  165.00000  16.91875             12.53053
1365.93684  1499.24737  190.00000  19.55478             12.50765
1368.47753  1750.48315  178.00000  17.45919             13.01926
1370.11312  16.43439    221.00000  18.33229             15.34512
1369.86124  1240.29187  209.00000  19.63885             13.74036
1370.41014  1331.29032  217.00000  19.73191             14.03268
1372.08108  1415.29054  148.00000  16.00663             11.84389
1372.35023  1518.69585  217.00000  22.31555             12.51256
1375.22275  1906.69194  211.00000  21.60235             12.64733
1380.01376  1835.97706  218.00000  19.15189             14.73500
1383.65532  1080.21277  235.00000  22.46481             13.61885
1386.85305  1294.19355  279.00000  26.19121             14.13657
1386.94510  1560.12941  255.00000  26.16954             12.60749
1388.49615  505.14231   260.00000  21.35698             15.56085
1387.57727  1784.32273  220.00000  18.32402             15.33846
1388.73859  364.73859   241.00000  21.48364             14.34840
1390.34884  1726.15504  258.00000  20.37137             16.22448
1390.79781  1813.25137  183.00000  20.71417             11.43053
1391.86920  1218.92827  237.00000  23.92763             12.73449
1396.29934  919.25000   304.00000  24.13319             17.88112
1400.83094  994.67266   278.00000  21.17640             17.18394
1403.63333  1357.97000  300.00000  33.38800             13.13859
1400.15284  1524.46725  229.00000  20.95534             13.97104
1403.27442  1843.68837  215.00000  24.59956             11.19929
1405.12222  1332.32222  90.00000   12.85832             8.95712
1411.92549  1774.82353  255.00000  21.44255             15.25492
1413.56296  1469.40000  135.00000  15.37978             11.30233
1417.99111  1064.67556  225.00000  19.62695             15.02397
1421.56471  1454.55294  170.00000  22.85904             10.46617
1418.58462  1401.66154  130.00000  15.47473             10.76179
1425.81349  1504.15476  252.00000  27.70608             12.45964
1431.04566  1024.74429  219.00000  17.87199             15.63821
1433.11470  1381.77778  279.00000  21.17264             16.86830
1434.36364  520.26263   297.00000  21.80240             17.94066
1434.42262  1416.31548  168.00000  15.53249             13.83599
1440.24096  431.82831   332.00000  24.28259             17.53045
1440.20673  1055.58173  208.00000  19.22278             13.84258
1439.84118  1180.03529  170.00000  16.97638             12.93023
1441.81143  1409.08571  175.00000  22.43242             10.77815
1447.15888  1435.56698  321.00000  21.73256             19.67475
1457.05666  471.45326   353.00000  31.80105             16.33971
1456.14876  1036.21901  242.00000  25.22904             12.30711
1456.65730  1359.11236  178.00000  15.92927             14.29378
1466.00847  1060.24576  118.00000  14.22263             10.75474
1471.39700  523.90262   267.00000  21.66508             15.83185
1473.16335  884.96414   251.00000  20.02334             16.23989
1476.47315  1482.35235  298.00000  25.93370             14.66937
1481.41472  540.22742   299.00000  23.24614             16.42041
1485.92344  861.66507   209.00000  24.69080             10.90706
1483.44351  1139.21757  239.00000  25.43238             12.60142
1492.91358  870.41358   162.00000  17.32368             12.94801
1502.97071  1531.96653  239.00000  20.00559             15.40350
1508.28897  560.65779   263.00000  22.96111             14.79324
1506.98113  856.94340   53.00000   9.21216              7.38586
1513.95575  1028.38053  226.00000  24.45960             12.00070
1519.90873  531.75397   252.00000  20.67570             15.68087
1516.68966  1542.16667  174.00000  20.17570             11.01990
1521.35517  638.45862   290.00000  23.95198             15.47439
1523.67421  792.46154   221.00000  21.96662             13.12242
1527.50725  1025.14493  138.00000  14.24452             12.66527
1531.99010  1572.69307  202.00000  21.43606             12.15641
1536.36816  739.99502   201.00000  17.87487             14.50172
1534.87500  782.89423   104.00000  12.88576             10.34730
1548.43617  668.26241   282.00000  24.07184             14.99894
1551.76754  537.33333   228.00000  18.87287             15.49127
1553.96689  704.12914   302.00000  24.55609             15.80674
1552.85246  1598.75956  183.00000  18.43676             12.71347
1564.26943  990.72021   193.00000  20.36714             12.11040
1565.68586  1623.03141  191.00000  17.50355             14.26046
1588.67179  979.98974   195.00000  22.79868             11.06496
1593.15571  761.90657   289.00000  21.04426             17.49312
1607.17787  794.62055   253.00000  20.42894             15.87571
1628.78182  956.79394   165.00000  20.91794             10.13270
1657.98020  945.25248   202.00000  19.45377             13.32644
1770.33766  8.20130     154.00000  16.02451             12.30625
1777.73481  99.35912    181.00000  15.37214             15.07771
1784.14118  63.43529    170.00000  18.60775             11.72031
1795.86538  1351.96154  208.00000  19.71682             13.52529
1793.16000  152.84000   100.00000  15.02767             8.99277
1809.97449  242.84184   196.00000  18.12314             13.83719
1819.55947  1363.12335  227.00000  20.71582             14.02828
1827.82540  268.36508   252.00000  19.28943             17.03486
1849.80503  463.11950   159.00000  17.89509             11.46988
1850.05600  87.68800    125.00000  14.81708             10.79401
1857.95205  1363.52055  146.00000  15.45942             12.07414
1863.42690  323.98830   171.00000  17.48549             12.51597
1868.00000  484.94175   206.00000  19.03398             14.14155
1896.08750  1376.24583  240.00000  22.98761             13.49372
1912.06410  497.89103   156.00000  15.83195             12.66800
1929.14857  345.62286   175.00000  17.50884             12.89341
1929.42202  1387.51376  218.00000  17.99016             15.45388
1932.67532  516.53896   154.00000  16.16508             12.14170
1939.81250  179.13393   112.00000  13.54741             11.14404
1943.01942  110.01942   103.00000  11.84027             11.37830
1953.75796  274.35032   157.00000  16.49319             12.76654
1958.57895  350.31053   190.00000  16.54514             14.81482
1966.49573  418.86325   117.00000  14.33455             10.42345
1968.83333  197.17857   84.00000   12.26320             9.24236
1999.23288  380.35616   146.00000  15.65411             12.10669
2043.57534  1214.42466  73.00000   11.35771             8.51905