# Filename: Nuclei_416_bidi_60x_017.npz
# Voxel size (nm): (108, 108)
# Area quantity: voxels
# Num nuclei detected: 1899
Y           X           AREA       MAJOR_AXIS_LENGTH    MINOR_AXIS_LENGTH
11.81466    732.70690   232.00000  19.42007             15.27355
27.38922    288.55090   167.00000  18.63897             11.64304
51.87437    475.69849   199.00000  18.60486             13.77680
54.07273    331.59394   165.00000  16.33118             12.98391
57.58264    689.20248   242.00000  20.59292             15.09395
59.88820    605.95031   161.00000  19.03676             11.17654
68.68553    442.10063   159.00000  16.37727             12.42144
73.12169    461.02116   189.00000  17.36898             14.07013
75.45139    339.07639   144.00000  13.67629             13.45962
77.64748    326.13669   139.00000  17.54226             10.10288
79.46328    650.57627   177.00000  18.09114             12.64409
84.47899    356.36134   119.00000  13.59753             11.23033
93.88776    448.13776   196.00000  17.62780             14.26929
98.31126    616.90066   151.00000  14.59200             13.47015
106.81513   578.04202   119.00000  14.10473             10.79733
114.42857   457.16807   119.00000  14.39975             10.63746
120.64748   630.53237   139.00000  19.75219             9.70892
122.66929   605.59843   127.00000  15.89149             10.18938
136.01105   397.74586   181.00000  17.16547             13.51739
134.00885   509.67257   113.00000  15.62474             9.48733
140.33696   592.23913   184.00000  15.90487             14.83676
142.40146   613.16058   137.00000  16.13033             10.83670
146.30702   241.52632   114.00000  14.26801             10.24744
149.47619   260.70635   126.00000  14.50597             11.08971
154.61265   646.10672   253.00000  20.13889             16.28405
155.02721   286.82993   147.00000  17.29849             10.83904
159.06369   669.84713   157.00000  16.99610             11.77792
164.91228   164.79532   171.00000  18.71186             11.73376
168.39007   265.02837   141.00000  16.39729             10.98810
168.63710   474.30645   124.00000  15.47882             10.26219
170.02703   584.60135   148.00000  15.44502             12.24434
172.17857   741.54464   224.00000  20.28322             14.23448
178.06965   146.76617   201.00000  17.10404             15.13560
177.67910   537.38060   134.00000  14.16441             12.03235
179.40146   413.32847   137.00000  15.54463             11.32471
181.16000   1170.11429  175.00000  16.98653             13.20538
206.25532   576.81702   235.00000  25.38388             11.84883
204.93605   1083.13953  172.00000  21.65367             10.24568
210.16019   444.25728   206.00000  22.95851             11.57416
207.64103   466.73718   156.00000  17.02547             11.77534
211.81667   1214.94333  300.00000  21.63621             17.69007
215.73984   1145.17073  246.00000  20.16508             15.63451
216.05161   107.75484   155.00000  14.70658             13.48270
218.33981   230.25243   206.00000  17.94841             14.68231
222.97633   636.71006   169.00000  18.70379             11.51937
222.62766   266.22340   94.00000   12.62336             9.62355
225.52206   215.16912   136.00000  14.74280             11.87964
225.20482   346.39759   83.00000   11.61897             9.40733
240.72125   430.20209   287.00000  24.17510             15.57031
236.47368   788.92982   57.00000   8.69542              8.31937
239.83582   1072.35075  134.00000  14.46736             11.81943
244.75909   582.62273   220.00000  18.95611             15.00321
248.65141   610.02465   284.00000  26.75818             13.60678
248.81019   1061.45833  216.00000  21.43286             12.96542
246.68862   703.83832   167.00000  17.77592             12.11667
247.93478   625.18116   138.00000  16.07274             11.00599
256.49789   258.45148   237.00000  21.34520             14.30495
258.45263   165.93158   190.00000  16.26355             14.92214
258.05455   404.98182   165.00000  16.51881             12.82978
270.99245   316.18113   265.00000  20.79798             16.29739
270.39286   594.03571   196.00000  19.94886             13.62029
271.26087   614.79503   161.00000  16.40648             12.53361
274.68880   719.95851   241.00000  22.40113             13.90119
271.20769   282.46154   130.00000  14.10546             11.90277
274.20896   657.16915   201.00000  19.58076             13.13363
269.85333   834.60000   75.00000   11.61479             8.24979
272.09924   336.16794   131.00000  14.36255             11.70151
271.25000   391.01087   92.00000   13.69872             8.57927
276.19417   136.75728   103.00000  12.67732             10.52007
279.43719   741.18593   199.00000  21.17789             12.23827
277.03817   466.11450   131.00000  14.63765             11.47360
281.83942   424.24818   137.00000  13.64212             12.85283
282.95035   157.36879   141.00000  13.77173             13.08170
285.70647   1039.27861  201.00000  20.59103             12.48345
284.02985   382.31343   67.00000   9.75304              8.74222
287.75564   516.71429   266.00000  20.33714             16.90898
294.76471   660.44444   153.00000  18.56039             10.50435
293.68790   649.42675   157.00000  15.77251             12.91634
295.44872   731.95513   156.00000  16.01328             12.46588
297.11724   435.87586   145.00000  15.87565             11.71003
299.10227   336.27273   176.00000  15.37678             14.75918
295.06122   818.57143   49.00000   8.88486              6.97659
302.54444   555.61481   270.00000  21.10772             17.01327
302.99087   1128.28767  219.00000  18.68769             15.02698
300.26230   165.34426   61.00000   9.95839              7.82580
305.08280   641.56051   157.00000  17.21977             11.63781
306.15789   824.92982   114.00000  15.22567             9.58707
312.36184   193.62500   152.00000  17.04318             11.76640
311.17442   346.95930   172.00000  16.79471             13.07337
311.38406   447.81159   138.00000  15.10662             11.74332
317.64000   762.10000   200.00000  19.10853             13.41605
317.04730   231.81757   148.00000  14.62709             12.91841
317.99479   1116.64062  192.00000  18.06700             13.55914
315.13636   489.20455   88.00000   12.66592             8.84555
320.99052   432.44076   211.00000  17.25805             15.57302
321.22543   406.84393   173.00000  21.32700             10.39799
326.23108   323.63745   251.00000  21.90051             15.40398
321.02817   458.04225   142.00000  14.63098             12.34162
325.16912   377.09559   136.00000  16.83449             10.33536
327.69492   1014.38136  236.00000  20.66580             14.70697
328.36863   533.91765   255.00000  26.94481             12.26539
329.22807   187.94737   171.00000  16.67622             13.17264
334.27000   756.89500   200.00000  26.58229             9.78771
329.22388   222.85821   134.00000  15.65123             10.91647
331.14773   609.03977   176.00000  20.78318             11.03520
328.84507   910.40845   71.00000   10.42819             8.72601
333.11594   391.46377   138.00000  15.26782             11.49630
333.44578   812.31325   83.00000   13.03556             8.12992
338.18293   646.60569   246.00000  22.36048             14.41354
336.05114   286.08523   176.00000  17.34936             12.91672
339.28000   594.68000   175.00000  20.96722             10.81361
341.55518   699.33779   299.00000  22.39117             17.59822
338.89583   503.60417   48.00000   9.55757              6.42694
343.10417   771.89583   192.00000  19.46515             12.66599
340.71605   916.70370   81.00000   12.42104             8.38935
342.11290   40.74194    124.00000  14.66321             11.64993
344.64844   182.85938   128.00000  15.15323             10.82639
348.03810   1101.97143  210.00000  18.47919             14.55784
347.41722   661.53642   151.00000  15.91286             12.20796
347.80488   823.42683   82.00000   12.11780             8.66030
349.34375   835.56250   32.00000   6.75174              5.99674
357.82677   1000.70866  254.00000  19.79241             16.46941
355.73214   397.35119   168.00000  15.63897             13.74309
357.51079   385.71223   139.00000  16.32865             11.25720
355.32143   541.47619   84.00000   11.80697             9.06485
359.66304   625.94022   184.00000  19.12345             12.47547
357.38053   436.61947   113.00000  13.38323             10.88185
365.78802   767.69124   217.00000  20.93278             13.40122
370.18421   556.01754   228.00000  28.41554             10.47010
366.56489   375.00000   131.00000  14.92751             11.31249
364.84286   851.12857   70.00000   9.62663              9.24183
370.12796   537.99526   211.00000  18.15174             14.82267
372.29082   755.64286   196.00000  17.62430             14.18357
375.63953   816.58527   258.00000  24.49976             13.47350
373.98830   681.40351   171.00000  17.55238             12.41189
375.46154   351.86538   208.00000  19.78541             13.79216
376.49174   704.69008   242.00000  19.69133             15.71132
376.08451   145.26761   71.00000   10.11104             8.97884
379.68243   75.88514    148.00000  15.97146             11.87120
381.55975   635.42138   159.00000  18.72989             10.85891
381.77632   609.10526   152.00000  16.59351             11.86297
388.24569   775.83190   232.00000  21.14473             14.35149
386.63158   600.78947   114.00000  17.19694             8.52953
389.61674   297.90308   227.00000  19.16368             15.35532
388.71815   526.75676   259.00000  20.48710             16.37375
390.61502   567.37089   213.00000  21.72814             12.60491
389.14236   839.43403   288.00000  32.79718             12.53022
388.44697   505.81818   132.00000  14.15341             11.88650
390.37991   385.97817   229.00000  18.63301             15.70847
396.41328   692.51292   271.00000  26.19010             13.36102
390.24272   203.58252   103.00000  13.47780             9.77098
389.69737   664.63158   76.00000   11.60396             8.38704
395.28652   182.14607   178.00000  18.96341             11.96218
395.98824   414.63922   255.00000  20.03705             16.30904
395.88889   452.01754   171.00000  16.59519             13.25766
398.09494   140.76582   158.00000  16.71440             12.08041
400.80814   720.93605   172.00000  17.18428             12.85518
403.89407   319.80085   236.00000  28.57097             10.67727
399.01031   787.74227   97.00000   13.14336             9.61324
404.21212   663.40606   165.00000  17.45664             12.16771
400.60909   926.74545   110.00000  13.13544             10.95347
405.44848   438.42424   165.00000  18.99163             11.11300
405.79894   467.78307   189.00000  16.24956             14.85135
407.32353   796.40196   204.00000  18.61468             13.96278
407.11765   1071.30392  204.00000  17.22452             15.16862
406.60135   847.02027   148.00000  14.28295             13.40187
417.66984   623.04444   315.00000  28.25208             15.30369
410.90094   677.50472   212.00000  17.35798             15.89991
411.33750   493.24375   160.00000  17.65940             11.58759
408.96855   568.50314   159.00000  14.88105             13.62932
410.51124   778.83146   178.00000  18.69255             12.36240
410.37662   297.90260   154.00000  14.60093             13.49851
412.36897   587.54828   290.00000  23.72117             15.88670
409.86667   836.85556   90.00000   12.54142             9.20658
415.33795   889.69529   361.00000  22.96277             20.23935
411.62712   182.23729   118.00000  13.09318             11.50766
417.64634   709.21138   246.00000  26.58489             12.34427
413.61140   1596.31088  193.00000  17.68617             14.22264
420.13357   1057.98195  277.00000  20.79777             17.39163
418.92925   531.73585   212.00000  17.82906             15.38266
418.96000   1489.38500  200.00000  17.60439             14.49719
419.17886   378.50407   123.00000  12.97498             12.07361
422.98160   745.58282   163.00000  20.16034             10.42873
421.80423   480.69312   189.00000  17.25419             14.26964
422.46842   511.14737   190.00000  17.80220             13.60427
421.61446   967.85542   166.00000  15.30354             13.87743
422.99254   392.03731   134.00000  16.70319             10.40786
424.86413   1547.78261  184.00000  16.07238             14.60259
426.71613   842.03871   155.00000  15.22483             13.02606
429.91667   1023.59167  240.00000  18.83446             16.31617
428.42857   146.88571   105.00000  12.31274             11.07856
428.64545   291.14545   110.00000  13.25001             10.77270
428.50000   415.33750   80.00000   10.51229             9.79128
432.85039   804.00787   254.00000  21.70122             14.97521
434.29282   352.58011   181.00000  17.39556             13.32416
434.51802   535.92342   222.00000  24.75699             11.83983
434.57746   393.25352   71.00000   10.73153             8.51461
435.72269   451.99160   119.00000  14.42965             10.51445
437.32447   465.85638   188.00000  19.31145             12.43324
435.46970   237.53030   66.00000   10.13989             8.24999
437.56589   408.01550   129.00000  13.74766             11.99411
437.42708   640.06250   96.00000   12.35765             9.94020
438.30597   704.37313   134.00000  15.45307             11.30246
440.86854   753.69953   213.00000  20.00218             13.72822
441.55340   766.55340   206.00000  21.07022             12.55022
437.10000   384.38000   50.00000   8.57710              7.38396
445.77273   1536.07273  110.00000  14.78158             9.60745
450.72314   915.03306   242.00000  21.34134             14.51693
450.32143   110.64643   280.00000  22.58843             15.99628
451.57219   529.30481   187.00000  19.43262             12.53321
453.75102   74.06939    245.00000  19.60133             16.15917
447.65574   463.85246   61.00000   9.40950              8.22453
452.43750   996.49519   208.00000  18.46780             14.42063
456.13245   734.27152   302.00000  22.13257             18.26154
452.91732   828.79528   254.00000  21.20276             15.27882
454.36596   218.40426   235.00000  19.16726             15.62360
456.04785   507.93301   209.00000  19.13295             14.00696
455.75701   594.08879   214.00000  20.25857             13.55487
455.47857   168.36429   140.00000  14.72407             12.12494
452.40000   371.60000   50.00000   8.17802              7.73563
458.59843   793.15354   254.00000  23.54400             13.82050
455.45695   420.82781   151.00000  18.17507             10.64528
458.80645   645.83871   217.00000  22.72201             12.26150
455.88991   764.01835   109.00000  13.54161             10.36153
460.31905   356.25238   210.00000  22.43902             13.43396
462.86000   1633.49600  250.00000  23.82312             13.70960
462.89212   888.35685   241.00000  19.35125             15.93356
464.59375   262.33333   192.00000  18.72061             13.19546
467.80545   1406.21401  257.00000  19.25490             17.12814
468.63784   608.26486   185.00000  18.43102             12.84906
467.97761   708.37313   134.00000  13.75591             12.41817
469.22957   966.51362   257.00000  20.93983             15.73442
475.24183   697.25163   306.00000  29.71248             13.89706
470.66667   788.23611   144.00000  16.45152             11.26500
470.30769   1521.38034  234.00000  23.48565             12.71435
473.54545   524.44589   231.00000  22.62180             13.24303
480.80531   465.44248   452.00000  33.72892             17.28065
472.77049   372.67213   122.00000  14.84687             10.65515
474.64626   1752.01361  147.00000  17.09663             11.21768
472.50000   338.02778   36.00000   7.49741              6.37695
477.51075   764.27419   186.00000  15.61266             15.29028
479.54113   812.09091   231.00000  21.29095             13.86607
479.00948   412.28436   211.00000  17.61388             15.35059
481.78855   177.09692   227.00000  19.68294             15.00244
480.11000   721.02000   100.00000  15.67657             8.29247
481.11333   327.41333   150.00000  15.66162             12.18475
481.23684   711.36842   152.00000  15.45718             12.75295
478.15000   879.48333   60.00000   9.95926              7.74050
481.65746   100.23204   181.00000  16.85613             13.81425
482.41593   252.50442   113.00000  14.43439             10.12640
489.36538   668.63462   208.00000  24.78844             11.44350
489.34831   344.60300   267.00000  21.67317             15.90980
492.22302   642.97842   278.00000  23.65506             15.55432
494.07470   688.38072   415.00000  27.88980             19.12120
485.70000   1508.79091  110.00000  13.07928             10.78182
490.74731   945.56989   186.00000  19.08804             12.56419
488.96815   85.68790    157.00000  15.37121             13.10849
490.00000   443.81448   221.00000  20.25180             13.98745
490.38728   428.33526   173.00000  18.26536             12.31684
492.16592   580.63677   223.00000  22.50461             12.65957
489.14545   194.79091   110.00000  13.68946             10.30079
492.96585   765.12195   205.00000  18.61730             14.25030
494.02586   1366.56466  232.00000  18.80046             16.07257
493.90722   1643.30928  194.00000  16.51094             15.01714
497.19691   541.98842   259.00000  21.71209             15.49969
496.11789   890.08943   246.00000  19.27833             16.43600
493.29762   205.67857   84.00000   10.69253             10.02518
493.14607   285.42697   89.00000   11.73602             9.71255
501.86528   1564.00000  193.00000  26.87629             9.66735
498.86574   1684.49537  216.00000  18.66935             14.72652
499.03704   1585.04444  135.00000  13.36055             12.86474
503.17917   811.02083   240.00000  20.49921             15.12377
498.92308   1598.84615  65.00000   11.34850             7.32329
502.32246   493.52174   276.00000  28.68687             12.61129
503.62500   381.28804   184.00000  18.75830             12.50499
505.64607   558.75281   178.00000  16.24111             13.95770
505.08612   267.39234   209.00000  24.87687             10.81709
508.46185   713.18474   249.00000  20.45417             15.79886
510.02174   126.03986   276.00000  19.18263             18.41375
509.63347   418.89243   251.00000  28.27640             11.40729
514.33047   572.49356   233.00000  23.61005             12.62237
512.94118   590.21569   153.00000  16.38738             11.94489
516.77895   548.01579   190.00000  18.08576             13.52243
518.65106   767.27660   235.00000  23.57883             12.84865
515.19853   1467.47794  136.00000  16.63065             10.66416
517.67917   913.57917   240.00000  20.36629             15.14156
516.40580   169.12319   138.00000  13.56030             13.06484
515.86139   361.61386   101.00000  15.36648             8.40026
518.61881   837.57921   202.00000  16.78295             15.43258
517.63704   1456.25185  135.00000  15.40524             11.27305
520.60360   459.42793   222.00000  19.24449             14.91563
519.88430   1778.20661  121.00000  14.98425             10.54059
519.62791   310.80620   129.00000  17.07240             9.67275
523.54299   869.00452   221.00000  21.50580             13.16396
521.01036   326.07772   193.00000  18.21176             13.59995
522.74219   1325.53906  256.00000  22.95807             14.36016
519.71429   1580.53247  77.00000   10.71805             9.25303
525.31507   273.10046   219.00000  21.56564             13.32231
521.88189   1747.99213  127.00000  13.15702             12.30675
525.54310   806.27586   232.00000  17.74526             16.73722
523.83333   287.46970   132.00000  14.91434             11.34635
525.65789   1562.04605  152.00000  15.41080             12.64373
529.45957   1531.42979  235.00000  20.02077             15.12219
530.74384   504.36453   203.00000  19.02135             13.60156
530.71429   637.67429   175.00000  18.24238             12.23136
530.61111   350.29861   144.00000  13.86931             13.25461
531.69343   422.54745   137.00000  16.01413             10.93147
534.43500   153.13500   200.00000  17.67856             14.72920
536.66031   1665.25573  262.00000  21.85914             15.43723
533.86577   390.88591   149.00000  14.37135             13.33114
537.88550   1512.35878  262.00000  20.84953             16.17193
534.64865   456.14414   111.00000  14.21855             10.00509
540.68831   904.35714   308.00000  27.46215             14.73405
536.97143   1647.19286  140.00000  15.00493             11.90262
538.61146   229.04459   157.00000  18.30007             11.19533
537.25253   528.54545   99.00000   13.55402             9.29444
538.05147   730.56618   136.00000  14.20707             12.26375
540.67188   1564.46875  192.00000  19.99194             13.54624
537.64167   403.12500   120.00000  13.64139             11.23720
540.61972   125.51174   213.00000  17.37954             15.65928
539.99286   615.43571   140.00000  14.31500             12.52368
541.42775   818.98844   173.00000  18.37829             12.00492
540.94958   179.78151   119.00000  15.14080             10.07545
541.86207   324.22414   174.00000  20.80750             11.46146
541.25581   292.52326   86.00000   11.18573             9.82927
550.22335   659.15228   197.00000  28.88110             9.08181
543.79464   367.04464   112.00000  13.70662             10.44683
548.22667   552.30000   150.00000  16.23153             11.82915
554.71062   711.63370   273.00000  26.62246             13.22528
549.06612   755.11570   121.00000  13.39508             11.58469
552.24057   73.38679    212.00000  23.22055             11.70291
550.41040   392.13873   173.00000  16.82181             13.13297
549.84314   467.00000   153.00000  17.32058             11.34814
551.65248   531.98582   141.00000  18.00542             9.99843
557.83721   568.84186   215.00000  26.93081             10.62208
551.01695   507.39831   118.00000  13.19682             11.58517
564.51025   798.31148   488.00000  39.76697             16.77775
556.89041   420.22374   219.00000  19.32407             14.50108
555.17021   914.15957   188.00000  18.12174             13.41672
557.86345   825.21687   249.00000  18.03566             17.59773
556.82955   181.63068   176.00000  17.32828             12.99271
558.81313   516.61111   198.00000  18.25901             13.93034
560.61644   499.60959   146.00000  18.21497             10.26619
562.90800   625.92800   250.00000  27.02468             12.62919
562.27511   732.78603   229.00000  20.96616             14.09313
561.03209   1459.51872  187.00000  16.98311             14.00233
561.59184   1504.19728  147.00000  15.89117             11.86169
566.18072   325.42169   166.00000  19.11679             12.26809
568.70954   545.89627   241.00000  23.09209             13.68787
564.38776   1444.42857  147.00000  15.27393             12.38617
565.95089   1412.31696  224.00000  19.70955             14.52688
564.99254   463.22388   134.00000  14.10833             12.09552
563.78899   528.60550   109.00000  15.17038             9.43429
567.42105   408.03289   152.00000  14.91863             13.08883
570.04962   652.25191   262.00000  24.65542             13.93888
571.61149   1429.13851  296.00000  22.65375             16.91566
567.15294   175.50000   170.00000  20.04215             10.83172
569.79503   1632.83851  161.00000  15.71166             13.10462
573.71717   667.00505   198.00000  20.89943             12.12036
572.89506   207.22840   162.00000  21.41824             9.70180
575.04947   369.00000   283.00000  26.38081             16.69810
572.76316   595.15132   152.00000  17.97157             10.90973
574.50658   1394.50658  152.00000  16.01600             12.26514
575.54128   719.10092   109.00000  14.36517             9.82145
580.15323   1480.20968  248.00000  22.98129             13.78899
578.27586   42.66995    203.00000  17.94821             14.59417
580.16162   930.00000   198.00000  19.40285             13.00817
580.15000   89.69000    200.00000  16.45180             15.58206
580.06349   527.76190   126.00000  17.19100             9.43514
581.56962   754.88608   158.00000  15.73324             12.82513
580.31579   506.62105   95.00000   12.33174             9.93417
581.43307   1782.48819  127.00000  14.85464             10.89057
583.35220   72.03774    159.00000  18.18614             11.34641
582.17722   297.60759   158.00000  18.18263             11.16936
585.36626   384.61728   243.00000  21.14656             14.78584
582.84416   1448.51299  154.00000  14.95462             13.13345
584.46405   1570.38562  153.00000  15.76211             12.42622
585.96610   159.22458   236.00000  19.95770             15.45197
582.68657   286.11940   67.00000   9.65521              9.18261
584.70370   575.10185   108.00000  15.30259             9.10642
589.12000   1388.54667  150.00000  16.32033             11.73009
590.35862   478.83448   145.00000  21.70802             8.88104
588.94059   1508.00000  101.00000  11.69371             11.03338
589.70946   1582.44595  148.00000  14.44094             13.06149
594.70968   676.58065   217.00000  23.30042             12.53886
590.41743   709.77523   218.00000  19.14095             14.61212
590.81250   1542.90000  160.00000  15.57710             13.13131
593.09836   350.45355   183.00000  17.54083             13.68654
592.68692   420.06075   214.00000  17.22148             15.94731
594.21519   1767.92405  237.00000  20.91057             14.59174
590.88235   196.27451   102.00000  12.73489             10.21357
596.57384   872.94937   237.00000  21.49916             14.29953
594.75191   1520.65649  262.00000  20.42651             16.41005
593.85083   316.18785   181.00000  19.67945             12.33590
592.01639   471.93443   61.00000   11.38396             6.92142
595.99574   620.80851   235.00000  25.47722             11.81959
597.95395   437.87829   304.00000  22.73068             17.11395
597.60515   12.63519    233.00000  20.89907             14.28390
599.45536   582.68750   224.00000  21.70183             13.33660
595.87097   548.39785   93.00000   11.04910             10.84099
600.67340   1408.65657  297.00000  23.83132             16.01355
597.92398   1628.92982  171.00000  15.75340             13.86605
600.27317   205.04878   205.00000  17.78622             15.12481
601.36923   594.62308   130.00000  22.09308             7.62958
601.52093   720.66047   215.00000  19.78356             13.93827
597.74615   753.21538   130.00000  13.27629             12.50467
601.26718   838.28244   262.00000  23.78642             14.11301
598.24031   858.26357   129.00000  15.37579             10.85775
600.42177   1751.68707  147.00000  15.78974             12.13470
601.45933   283.46890   209.00000  18.03349             14.82772
600.20859   403.28221   163.00000  14.81257             14.42107
601.18605   789.56395   172.00000  16.58307             13.26690
603.70370   510.57672   189.00000  17.63537             13.73301
604.58065   606.42473   186.00000  17.58091             13.59185
603.86466   344.41353   133.00000  14.49266             11.82268
603.70370   645.62963   135.00000  14.05092             12.35441
604.75000   803.43571   140.00000  14.91569             12.00947
606.17051   1425.91244  217.00000  18.42536             15.03947
604.55970   1586.76119  134.00000  13.99494             12.34850
605.26549   544.21239   113.00000  12.94900             11.49203
606.94886   1496.04545  176.00000  16.94686             13.22195
606.04762   166.22222   126.00000  15.70837             10.23106
615.34340   753.67170   265.00000  31.79033             11.05380
608.72258   1544.03226  155.00000  15.76873             12.51408
610.55610   1809.21463  205.00000  18.94233             13.85044
612.91139   407.87342   158.00000  16.58108             12.33815
609.83133   472.10843   83.00000   10.77055             9.87525
611.10619   123.70796   113.00000  14.72214             9.83655
615.75862   452.06207   145.00000  17.28334             10.84512
612.39726   652.04110   73.00000   10.86895             8.77567
615.13158   1516.38947  190.00000  17.78878             13.61472
613.50303   189.39394   165.00000  18.58392             11.38673
620.73469   556.30204   245.00000  24.56764             12.94321
615.03937   732.62205   127.00000  17.98354             9.25313
615.47183   1775.54930  142.00000  16.81856             10.91904
614.29060   295.64103   117.00000  13.55728             11.07554
615.89308   768.16981   159.00000  15.79601             12.89358
615.82530   809.57831   166.00000  15.14893             13.99985
614.44966   1744.06040  149.00000  16.15671             11.78055
614.20192   206.75000   104.00000  13.69124             9.74944
616.33333   153.65833   120.00000  13.52073             11.39932
619.03049   477.42073   164.00000  15.59851             13.58210
616.66935   590.73387   124.00000  13.19681             11.98899
618.50407   679.95935   123.00000  15.68128             9.98971
626.56195   727.85841   226.00000  31.28402             9.75126
621.95472   1655.65660  265.00000  21.38463             15.88095
621.65714   442.21905   105.00000  13.00660             10.54283
622.60811   618.39865   148.00000  17.72515             10.75816
627.79683   1442.32190  379.00000  26.77529             18.41204
623.89266   349.54237   177.00000  16.75980             13.69082
627.96063   661.51181   254.00000  26.35494             12.58061
631.36364   1535.21390  374.00000  25.28303             19.46163
627.17486   167.86885   183.00000  18.39509             13.08749
626.47442   382.32093   215.00000  16.97395             16.45158
628.07589   295.86607   224.00000  18.13163             15.87250
624.81818   431.38017   121.00000  16.44753             9.40332
625.16807   605.54622   119.00000  15.60264             9.78101
625.22414   402.87069   116.00000  14.72324             10.12762
629.60084   936.62605   238.00000  20.15910             15.15801
629.08879   1637.36916  214.00000  19.23171             14.23511
632.08021   465.14439   187.00000  20.43032             12.44645
628.34815   1421.60000  135.00000  15.09134             11.40453
631.67841   1495.34361  227.00000  18.03314             16.03308
634.22745   530.46667   255.00000  20.51049             15.99154
636.88281   318.55859   256.00000  24.77284             14.27521
632.48020   814.70792   202.00000  19.15140             13.74057
632.69167   122.32500   120.00000  13.80987             11.10899
633.24419   581.77907   172.00000  16.31475             13.80262
635.58009   875.86580   231.00000  20.63464             14.36153
635.08671   746.75145   173.00000  15.36924             14.43167
636.04676   500.14748   278.00000  24.01540             15.67750
641.18182   72.61616    99.00000   13.62701             9.31731
644.77070   584.40127   157.00000  15.55441             13.35238
643.71852   711.83704   135.00000  14.65028             11.81974
646.69512   237.75000   164.00000  21.19017             10.00983
650.06013   336.64873   316.00000  27.91077             14.47896
644.23016   438.52381   126.00000  13.56088             11.99768
650.13043   1481.81159  276.00000  23.79942             15.17223
644.81667   565.94167   120.00000  14.83134             10.49948
648.72081   184.45685   197.00000  20.70902             12.17852
653.83258   1554.90045  221.00000  21.33921             13.21163
655.18214   777.86429   280.00000  25.06469             14.56881
655.83575   556.93720   207.00000  17.24522             15.39187
659.11828   804.39785   279.00000  22.05145             16.37668
661.42790   989.75414   423.00000  27.11917             20.69299
657.52023   440.12139   173.00000  18.47732             12.05813
662.88693   1591.18375  283.00000  26.51920             14.30170
659.66222   210.93778   225.00000  18.25660             15.85799
659.02326   412.65698   172.00000  17.89485             12.29196
661.04237   424.41949   236.00000  21.00465             14.73705
656.91429   102.12381   105.00000  12.43307             10.75567
660.82008   848.51046   239.00000  18.36208             16.76132
661.33990   291.07882   203.00000  18.36097             14.41130
661.11818   385.82727   110.00000  16.15222             8.87516
661.13187   613.19780   182.00000  19.12995             12.19972
665.25484   679.44194   310.00000  26.58353             14.99302
663.67832   825.13287   143.00000  14.49638             12.66461
663.80672   82.93277    119.00000  13.61764             11.76124
666.88701   137.63842   177.00000  15.26470             14.81765
667.30583   158.64078   206.00000  20.27280             13.18928
667.97409   535.89637   193.00000  20.63205             12.33728
669.11494   870.60920   174.00000  17.89759             12.47934
668.15748   1816.22047  127.00000  14.92541             10.96570
670.38655   815.55462   119.00000  14.81252             10.39551
672.66500   767.94000   200.00000  21.03463             12.16927
669.74324   393.67568   74.00000   11.28510             8.46395
674.21364   725.05000   220.00000  20.87999             13.70008
675.89437   476.11268   284.00000  28.47523             13.88654
672.51667   241.45833   120.00000  14.20434             10.96986
677.69167   325.07083   240.00000  22.02780             14.03951
676.19421   560.04959   242.00000  25.94416             11.99628
675.48223   194.97970   197.00000  17.80070             14.20290
674.61905   171.15079   126.00000  13.03340             12.35520
678.07333   386.09667   300.00000  25.11699             15.62545
677.33333   710.41772   237.00000  23.02245             13.81541
678.84689   608.46890   209.00000  17.72135             15.08107
680.14010   822.61836   207.00000  19.00169             14.03521
680.94203   354.03865   207.00000  18.39486             14.68331
681.83922   1607.76471  255.00000  20.24758             16.08699
678.28431   538.86275   102.00000  12.90258             10.17143
684.41441   574.80631   222.00000  23.82475             12.25212
678.56522   1780.68478  92.00000   11.92539             9.87515
681.92045   81.71591    176.00000  16.41202             13.67740
686.32766   671.08085   235.00000  20.30336             15.02714
683.31973   864.88435   147.00000  15.30698             12.30161
686.56111   208.82778   180.00000  17.05882             13.48646
685.26344   264.86022   186.00000  17.82035             13.36587
689.90222   446.72889   225.00000  23.08937             13.38476
685.81622   495.18378   185.00000  19.66863             12.23372
687.92982   1747.83041  171.00000  17.51877             12.51962
688.61972   50.81221    213.00000  17.87802             15.27389
687.71774   372.62097   124.00000  15.21332             10.38986
688.81119   635.12587   143.00000  15.59792             11.70828
688.76667   245.64444   90.00000   12.40171             9.31029
692.01015   1764.41624  197.00000  16.46568             15.43074
695.76000   706.68000   175.00000  21.88646             10.39889
695.69628   309.91117   349.00000  27.46485             16.50284
693.34146   433.04878   123.00000  15.73270             10.01185
695.17476   806.45146   206.00000  18.13765             14.48448
698.43089   758.76016   246.00000  25.11011             12.72336
700.45277   771.36482   307.00000  31.98699             13.07293
695.07865   106.23034   178.00000  16.46469             13.79341
700.01660   581.51867   241.00000  25.29552             12.38969
694.68889   134.72593   135.00000  17.67204             9.79041
696.67683   620.66463   164.00000  17.30400             12.10235
698.89416   653.80657   274.00000  20.14345             17.54920
699.75536   1543.80687  233.00000  22.16758             13.46260
696.79167   1555.55000  120.00000  13.96804             11.18449
698.93333   402.60000   120.00000  14.57317             10.49086
700.81159   195.00725   138.00000  15.45247             11.41892
701.26702   604.23037   191.00000  22.12027             11.32167
698.02326   348.70930   86.00000   11.92976             9.17753
700.19828   546.74138   116.00000  14.76112             10.09591
702.53125   1860.45312  192.00000  17.99265             13.59707
705.86082   387.45876   194.00000  19.34580             13.05818
704.88312   482.55844   154.00000  15.93446             12.38354
705.03030   293.61364   132.00000  14.72729             11.54598
705.63158   181.84211   133.00000  14.05317             12.13946
707.60104   786.52850   193.00000  16.58293             14.87569
708.02564   1779.97436  195.00000  16.51274             15.15343
709.72067   345.17318   179.00000  18.36552             12.61447
711.40893   429.88316   291.00000  28.17166             13.53523
709.74825   262.68531   143.00000  17.11951             10.90272
711.67766   561.24908   273.00000  22.72602             15.48699
710.80392   640.79902   204.00000  20.76571             12.54616
709.36493   858.17062   211.00000  17.81840             15.30180
707.50000   272.82979   94.00000   11.64258             10.30945
715.13960   369.76353   351.00000  28.11554             16.61811
715.34987   460.41514   383.00000  23.80494             22.67291
713.54849   697.54515   299.00000  24.37938             16.61557
714.65238   122.79524   210.00000  18.64018             14.62536
711.70950   406.86034   179.00000  17.33415             13.19172
712.07207   491.59459   111.00000  12.97269             10.98181
714.55435   207.59783   184.00000  16.74312             14.03065
714.53556   232.40167   239.00000  21.19434             14.61119
713.72078   532.16883   154.00000  15.07906             13.10136
718.32766   70.63404    235.00000  18.61393             16.14698
717.70732   92.60976    164.00000  15.24088             13.72930
717.97727   1791.34848  132.00000  15.08562             11.34259
718.06579   1571.47368  152.00000  15.32474             12.61655
719.26994   27.69939    163.00000  16.19004             13.13664
722.62207   154.40134   299.00000  24.74627             15.42499
721.59259   178.44444   189.00000  16.51969             14.57304
724.27311   280.76891   238.00000  24.29808             12.90011
724.80717   590.80269   223.00000  20.96162             13.61096
725.26271   332.82203   236.00000  24.11671             12.70101
723.50877   317.44737   114.00000  14.76750             9.90384
727.15263   617.16316   190.00000  19.59262             12.43441
726.46809   45.04787    188.00000  17.68631             13.65194
725.64583   405.68750   240.00000  19.62911             15.83021
729.64286   481.34375   224.00000  17.85800             16.16267
731.49329   533.65101   298.00000  27.85825             13.71554
732.40782   847.36872   179.00000  17.18828             13.26883
731.06548   98.72619    168.00000  16.75407             12.77031
732.78095   1553.38571  210.00000  17.07043             15.68029
738.14035   627.17105   228.00000  22.88885             12.85349
736.08500   762.89000   200.00000  18.68654             13.70635
736.31278   310.14537   227.00000  18.45935             16.00582
740.11284   1520.56420  257.00000  24.20222             13.54365
739.16098   87.58537    205.00000  20.70101             12.74403
738.40805   257.04023   174.00000  15.86413             14.06006
740.53684   201.94737   190.00000  16.25673             15.19660
740.78014   407.02837   141.00000  14.95862             12.00560
742.41969   1738.70984  193.00000  18.68960             13.47824
744.40755   119.06415   265.00000  19.99892             17.25215
745.93130   1497.90840  262.00000  20.66409             16.87378
744.84324   472.28108   185.00000  18.73312             12.67715
744.60109   661.22951   183.00000  16.29021             14.34336
745.35676   720.17838   185.00000  19.40661             12.24238
742.93846   238.91538   130.00000  14.85639             11.15094
743.21101   322.82569   109.00000  12.77217             10.96130
745.61932   582.82386   176.00000  19.02928             11.93080
747.56364   708.62727   220.00000  22.24955             12.95225
749.31739   1608.82174  230.00000  24.36273             12.23351
748.55721   437.12438   201.00000  18.00408             14.40670
751.86017   1752.89831  236.00000  23.27236             13.19811
752.59218   561.70950   179.00000  16.62569             13.79741
750.36719   766.92969   128.00000  13.81614             11.89024
750.87324   532.26056   142.00000  15.48966             12.00799
756.47059   742.89916   238.00000  20.99897             14.59743
755.40284   185.13744   211.00000  22.70462             13.36507
761.35211   540.94718   284.00000  30.45449             12.64976
758.67665   1529.29341  334.00000  23.29813             18.48295
758.64662   330.75940   133.00000  17.86344             9.56279
760.41026   421.01538   195.00000  23.95439             10.67483
758.23913   608.13043   184.00000  17.91406             13.10772
760.13089   755.17801   191.00000  20.23443             12.15632
760.60944   251.70815   233.00000  21.82683             13.77161
757.88199   401.81988   161.00000  18.24922             11.58872
759.29482   47.57371    251.00000  20.16350             15.87913
755.66667   411.83951   81.00000   11.74459             8.91791
760.26087   498.94410   161.00000  18.14300             11.47629
761.02577   650.90206   194.00000  17.31935             14.37350
761.88889   451.78189   243.00000  23.17338             13.54321
764.90991   83.87387    222.00000  19.41077             14.97355
764.91584   470.07426   202.00000  17.64907             14.81476
761.41111   268.82222   90.00000   11.45311             10.37169
764.61576   353.39901   203.00000  18.20647             14.31279
763.22093   640.24419   86.00000   14.69267             7.47521
764.10563   1599.27465  142.00000  14.72994             12.30635
765.76415   202.68868   106.00000  15.57699             8.74220
765.65089   278.43787   169.00000  15.85293             13.72418
765.41745   588.52960   321.00000  27.31500             15.01188
767.70130   111.38961   231.00000  20.10358             14.72013
765.87097   211.92473   93.00000   12.24722             9.77230
773.48707   763.30603   232.00000  29.01268             10.69988
767.39429   296.16000   175.00000  16.89715             13.30610
767.69000   622.20500   200.00000  17.39245             14.74085
772.43346   1464.74144  263.00000  25.70811             13.39053
772.17699   1588.41150  226.00000  23.34357             12.41929
769.11696   1576.27485  171.00000  16.48510             13.23233
771.52660   405.22340   188.00000  23.80723             10.22208
774.63030   849.80606   165.00000  19.82364             10.76772
773.96833   973.05430   221.00000  17.81899             15.84639
773.12987   557.68182   154.00000  17.58019             11.78191
773.60714   176.54762   84.00000   11.20814             9.61474
774.23288   1746.79452  146.00000  14.35188             13.02635
775.94857   335.26286   175.00000  15.23622             14.71835
777.30409   513.50292   171.00000  16.37168             13.47416
786.89888   722.00749   267.00000  33.66185             10.91284
784.59278   753.89175   194.00000  22.48856             11.72016
779.23913   775.09783   184.00000  18.84248             12.50658
780.92857   565.52381   126.00000  15.08822             11.24056
779.68041   277.95876   97.00000   14.42473             8.59141
782.59447   1488.88479  217.00000  18.83689             14.89767
782.69683   467.28507   221.00000  19.70889             14.61517
781.51136   218.89773   88.00000   15.15045             7.67071
787.16425   702.67874   414.00000  25.50397             21.30673
786.72803   1450.59414  239.00000  22.06664             13.99423
785.65714   184.49714   175.00000  18.82163             11.96003
786.35119   319.66071   168.00000  16.48789             13.13487
784.32812   235.42188   128.00000  15.57451             10.49354
788.47541   95.57923    183.00000  23.40537             10.22863
790.47036   591.66008   253.00000  18.38662             17.96633
789.92063   134.38095   126.00000  12.89506             12.49480
790.98122   206.50704   213.00000  18.72072             14.52753
793.13127   294.62934   259.00000  21.63887             15.41861
791.52607   660.49289   211.00000  18.81384             14.30207
794.15183   41.45550    191.00000  17.94752             13.65771
799.15126   358.16807   357.00000  27.63821             17.51111
790.26027   387.54110   146.00000  17.42132             10.71117
793.52330   435.40860   279.00000  21.54381             16.58716
798.52792   548.53046   394.00000  33.92312             16.36937
797.92965   834.59799   199.00000  26.01559             10.39141
798.83465   487.24409   127.00000  15.86301             10.24800
796.58955   1733.52239  134.00000  14.50582             11.75674
799.96954   524.76142   197.00000  17.67521             14.24091
800.22764   1496.67886  246.00000  20.95169             15.04393
799.04065   235.66667   123.00000  14.38899             10.94249
802.07389   637.27586   203.00000  19.14932             13.61536
801.52479   1540.41322  242.00000  18.31530             17.20147
805.90909   1602.44664  253.00000  24.80612             13.42835
805.17323   261.35827   254.00000  19.91934             16.51130
802.32231   416.53719   121.00000  13.78208             11.25541
805.16194   578.82186   247.00000  22.68269             14.05373
806.73451   501.03540   226.00000  18.69001             15.49580
805.02344   101.82812   128.00000  14.61007             11.16644
808.30247   427.88272   162.00000  16.93371             12.30719
810.78995   1586.41096  219.00000  19.69647             14.18282
812.11382   299.45528   246.00000  23.13414             13.65618
809.13333   789.01111   180.00000  16.19269             14.15782
808.14851   162.16832   101.00000  13.63712             9.62643
815.92115   471.29032   279.00000  26.51529             14.34072
807.82812   554.82812   64.00000   10.03974             8.17058
810.80874   382.24044   183.00000  16.62564             14.29209
814.79042   756.82036   167.00000  19.11285             11.37891
815.18834   38.28251    223.00000  19.04622             15.00815
812.95652   406.97391   115.00000  13.65052             10.90295
816.47805   1726.17073  205.00000  19.86670             13.27316
812.78641   121.35922   103.00000  12.81144             10.41585
815.74627   156.74627   134.00000  15.16050             11.32337
815.23853   417.31193   109.00000  14.61707             9.62902
817.27523   591.83945   218.00000  17.75509             15.72628
816.31655   241.46043   139.00000  14.30048             12.49336
818.35676   329.21081   185.00000  17.25978             13.78370
817.62573   455.48538   171.00000  15.79123             13.94960
824.72829   975.04482   357.00000  29.34406             15.68488
822.87869   196.97049   305.00000  22.35204             17.89934
819.10366   484.23171   164.00000  15.08307             13.98455
820.53247   511.61039   154.00000  18.61958             10.57359
823.54369   1530.60680  206.00000  18.03550             14.60492
827.50746   276.05473   201.00000  21.23953             12.10065
825.98969   1446.88660  194.00000  16.95512             14.64307
827.16895   171.18265   219.00000  19.20385             14.66001
829.07317   744.78049   246.00000  19.65010             16.08541
826.26277   421.92701   137.00000  16.33295             10.77241
827.31073   1747.99435  177.00000  17.23776             13.24873
830.42857   363.97619   168.00000  18.90506             11.31511
831.91257   758.77596   183.00000  18.33116             12.80388
829.48039   245.00980   102.00000  12.43680             11.17704
832.66964   252.89286   112.00000  15.82056             9.40714
833.41603   462.47328   262.00000  21.66589             15.59480
834.42038   496.43949   157.00000  15.45559             13.14288
837.77021   1591.93617  235.00000  19.87897             15.09239
837.07173   1389.64557  237.00000  19.77020             15.66394
841.61702   1472.54610  282.00000  25.62908             14.10309
834.85000   623.20000   80.00000   11.87706             8.62180
839.82222   385.73704   270.00000  22.10727             15.66019
837.10303   8.10303     165.00000  18.64889             11.29658
841.03313   233.50904   332.00000  22.74876             18.69909
839.38889   809.62963   162.00000  14.86250             13.96902
840.05164   1439.09859  213.00000  17.39810             15.69127
840.09890   64.56044    182.00000  17.34494             13.47336
838.22642   1728.33962  53.00000   9.46125              7.17755
839.05333   88.33333    75.00000   11.06648             8.64580
842.29940   412.84431   167.00000  17.63397             12.12853
842.39506   1555.18519  162.00000  15.27493             13.60741
839.82075   1738.12264  106.00000  13.14735             10.30736
843.18966   136.26724   116.00000  13.76343             10.74572
847.53810   598.97143   210.00000  20.57520             13.06308
851.69461   547.36228   334.00000  29.40993             14.84823
848.22000   121.35000   200.00000  17.28778             14.79454
845.66142   164.34646   127.00000  15.14396             10.72381
849.24500   504.13000   200.00000  20.93465             12.43663
848.11921   1720.12583  151.00000  14.81108             13.09437
848.30894   74.65041    123.00000  14.36555             10.90246
849.47826   628.15217   184.00000  16.63637             14.41259
851.25843   1447.33146  178.00000  17.73539             12.91025
855.69159   447.24766   214.00000  25.13556             11.08419
855.65079   715.73016   252.00000  22.52123             14.65894
855.23952   319.60778   334.00000  23.30198             18.39253
854.99638   1488.32246  276.00000  23.92860             14.95176
852.19545   44.13636    220.00000  23.45091             11.98411
855.58000   389.52400   250.00000  21.30772             15.10965
855.77000   193.57000   200.00000  19.50904             13.12374
854.21687   1378.86345  249.00000  22.33339             14.29326
856.51351   170.13514   222.00000  22.17514             12.97136
860.94444   259.13399   306.00000  27.59392             14.37011
856.14493   577.75845   207.00000  17.66564             15.05958
855.14674   1734.35870  184.00000  16.55307             14.17995
855.96330   212.38073   218.00000  18.65793             14.94698
860.06806   421.86911   191.00000  23.91471             10.37365
863.25077   777.13003   323.00000  25.73118             16.11294
860.95098   516.61765   204.00000  20.54534             12.69791
860.02885   673.14904   208.00000  18.16860             14.68367
861.45570   625.78481   79.00000   10.41701             9.68515
863.29070   1529.43605  172.00000  16.41106             13.43560
865.48951   406.20280   143.00000  18.18652             10.08374
864.59474   501.65263   190.00000  19.18566             12.78093
871.98958   1499.53819  288.00000  29.36236             13.23690
864.90000   34.70833    120.00000  13.54003             11.45774
865.50909   1642.93636  110.00000  13.55455             10.39531
866.97642   52.32547    212.00000  18.40988             14.68328
865.93785   1690.55932  177.00000  17.79490             12.70227
867.51282   1672.05128  156.00000  15.54778             12.80089
868.70950   1748.89944  179.00000  16.54213             13.90700
870.08108   246.52973   185.00000  16.75467             14.16523
869.64497   1602.48521  169.00000  15.24573             14.13994
869.77037   148.25926   135.00000  14.70043             11.80805
871.25490   361.00000   153.00000  16.96550             11.87605
871.22010   103.30144   209.00000  17.50606             15.27728
871.83173   484.51442   208.00000  18.63521             14.28971
873.96032   653.46032   252.00000  21.25834             15.50527
874.65041   156.05691   123.00000  16.86763             9.83337
873.57534   273.37443   219.00000  18.83699             14.87369
873.32653   679.74830   147.00000  14.50984             13.03776
878.50741   1558.81852  270.00000  24.74839             13.97552
874.96183   197.76336   131.00000  13.46620             12.41405
876.75962   308.92788   208.00000  18.13754             15.33544
874.68182   323.08333   132.00000  15.15953             11.51956
874.62105   167.43158   95.00000   12.09643             9.99256
878.07042   219.96714   213.00000  21.05689             13.30904
878.73756   701.55656   221.00000  22.06607             12.88686
879.46259   806.30272   294.00000  21.43657             18.17129
878.55224   119.24876   201.00000  17.56129             14.60867
880.07692   181.60181   221.00000  19.92088             14.66186
882.90182   1578.24727  275.00000  23.88749             14.72390
878.98370   417.00543   184.00000  18.10000             13.37887
882.93782   1768.84974  193.00000  18.13592             13.68301
883.96759   1748.83333  216.00000  16.95148             16.25152
883.64336   511.16084   143.00000  14.28487             12.98239
883.77246   587.43713   167.00000  16.17002             13.43284
887.50403   1445.58065  248.00000  22.92023             13.95306
884.66667   319.78231   147.00000  15.36192             12.46516
889.16466   474.58233   249.00000  22.55536             14.26199
887.14124   1362.57062  177.00000  17.53934             12.92375
892.42202   530.37003   327.00000  23.34404             18.35124
893.45607   949.66946   239.00000  28.83116             10.75429
891.15023   633.46009   213.00000  19.99275             13.66799
891.93413   262.29940   167.00000  17.75987             12.10407
891.58659   398.10615   179.00000  17.40924             13.38945
893.04566   1429.00913  219.00000  22.05294             12.78942
892.45312   1518.05729  192.00000  16.95100             14.46810
896.71631   1687.17021  282.00000  23.93880             15.13784
893.82449   374.62449   245.00000  18.77468             16.72915
895.55941   711.94554   202.00000  20.83466             12.40852
894.73725   1457.92549  255.00000  19.37692             16.82017
893.02913   592.71845   103.00000  14.27309             9.57580
897.53668   347.47104   259.00000  23.00400             14.43883
901.15299   409.64925   268.00000  24.63027             14.75443
895.66052   555.49446   271.00000  24.43169             14.22724
901.16193   1623.17330  352.00000  23.18719             20.44504
902.07083   447.50417   240.00000  23.72063             13.07866
897.57009   573.19626   107.00000  13.01628             10.63293
902.72308   233.67308   260.00000  22.05699             15.20623
903.78750   510.35938   320.00000  23.38189             17.95963
901.70536   250.51786   112.00000  12.42849             11.50137
905.04147   619.19355   217.00000  25.05415             11.53692
902.48148   41.00000    108.00000  12.71494             10.89813
904.95475   71.32127    221.00000  22.80863             12.48785
901.51064   182.18085   94.00000   11.41060             10.73058
906.67949   112.88462   234.00000  18.62866             16.05882
906.51502   1810.16309  233.00000  22.13921             13.42413
906.51515   173.05303   132.00000  13.78732             12.48201
906.72941   1592.00000  170.00000  17.19015             12.61130
909.07224   329.72624   263.00000  21.51931             15.77798
910.98171   53.71951    164.00000  17.18568             12.22046
916.82781   356.16556   302.00000  23.99735             16.35884
916.26471   389.12605   238.00000  23.95028             13.01067
911.74242   641.95960   198.00000  17.46200             14.53421
918.01617   728.07547   371.00000  28.72796             17.36402
912.46875   1547.53125  192.00000  17.38674             14.20106
912.11724   1701.86897  145.00000  14.95768             12.41109
911.89744   943.62821   78.00000   12.93496             7.73598
915.38857   477.08571   175.00000  19.12979             12.48441
920.04040   1344.18182  297.00000  21.88115             18.79358
917.59135   763.52885   208.00000  21.68659             12.34156
918.86310   1603.24405  168.00000  17.59302             12.28606
917.51562   151.57031   128.00000  13.41004             12.21015
917.13793   457.16092   87.00000   13.07298             8.54261
918.42276   467.52846   123.00000  13.20211             11.91170
918.85124   41.10744    121.00000  14.64271             10.57336
922.39744   582.83974   156.00000  18.06415             11.38958
920.52778   304.26852   108.00000  13.56827             10.25214
918.85075   326.00000   67.00000   11.87085             7.32066
927.61607   269.64732   224.00000  23.44421             12.52222
923.75207   740.32231   121.00000  16.00156             9.78860
926.98413   672.04233   189.00000  21.03156             11.52731
926.41880   168.86325   117.00000  16.67252             9.49756
927.25735   195.61765   136.00000  13.99406             12.50658
927.43210   536.48148   162.00000  17.49359             11.87459
928.77698   320.89928   139.00000  15.48510             11.61252
932.56989   483.19892   186.00000  19.36447             12.33949
933.33673   1679.32143  196.00000  16.50950             15.33204
936.35315   1579.54545  286.00000  22.87772             16.39826
933.32512   111.43350   203.00000  18.25886             14.18959
934.69655   386.71724   145.00000  16.62015             11.20949
936.29817   217.60092   218.00000  18.80457             14.86313
935.07639   278.31250   144.00000  14.62635             12.70051
936.03902   683.17561   205.00000  17.87519             14.65968
936.33143   415.33143   175.00000  16.81734             13.41446
937.62581   1634.11613  155.00000  18.09349             10.94628
937.40500   300.71000   200.00000  18.65331             13.70562
936.00909   170.78182   110.00000  13.51808             10.44067
939.87083   1826.84583  240.00000  18.85838             16.27209
943.36615   1447.55077  325.00000  23.36520             18.35391
942.10039   542.36680   259.00000  19.97149             16.60812
940.71687   1607.51205  166.00000  15.98722             13.24254
942.14545   183.31515   165.00000  16.69206             12.65985
943.55844   948.03896   308.00000  23.79712             17.07454
944.13853   591.77056   231.00000  17.93699             16.61033
946.03676   934.48529   136.00000  15.66335             11.71923
943.22667   1552.76000  150.00000  15.82255             12.08235
944.63333   131.76250   240.00000  21.80948             14.05797
943.11465   249.17197   157.00000  17.38175             11.76279
945.54040   482.98990   198.00000  19.93692             12.90942
947.04930   1497.65493  142.00000  14.93393             12.44899
947.21311   114.58197   122.00000  12.87589             12.08713
947.57843   410.80392   102.00000  12.27059             10.63538
950.32819   1661.49807  259.00000  23.40970             14.82328
951.63504   153.17153   274.00000  19.56051             18.29872
949.76549   458.15929   226.00000  18.89496             15.36330
953.44503   83.64921    191.00000  18.39218             13.40953
954.28105   507.81699   153.00000  20.83209             9.52682
955.77451   295.72549   204.00000  18.21852             14.36866
961.13712   341.58863   299.00000  28.87975             13.68085
959.60153   668.62452   261.00000  25.89122             13.12619
956.74803   242.25984   127.00000  15.21420             10.67813
957.39175   648.82474   194.00000  18.13193             13.68864
959.23626   921.46703   182.00000  19.31484             12.65103
957.78541   1432.54936  233.00000  18.31373             16.28669
960.77880   1492.68203  217.00000  21.44154             13.27823
956.65891   229.85271   129.00000  14.38376             11.43975
958.70588   317.69118   68.00000   10.76267             8.06347
963.45339   583.17373   236.00000  20.87591             14.50251
961.19797   736.95431   197.00000  17.87292             14.07377
963.75229   307.38991   218.00000  18.31396             15.21140
966.13043   491.89723   253.00000  23.55550             13.74246
963.33577   261.39416   137.00000  14.74116             11.82166
964.19259   420.77037   135.00000  15.41537             11.18645
972.19273   434.90909   275.00000  22.09915             18.01754
967.24138   1345.46897  145.00000  17.26739             10.97992
968.95455   167.69192   198.00000  16.99713             14.91695
969.77297   219.85405   185.00000  20.16134             11.69561
968.09942   1334.61988  171.00000  15.84121             13.91583
967.27723   368.17822   101.00000  12.12886             10.63827
970.55330   548.71574   197.00000  21.37810             12.51897
972.80851   559.80851   188.00000  18.41593             13.37906
970.27083   197.79861   144.00000  21.23329             8.93136
973.02874   235.80460   174.00000  20.72924             10.80318
973.51802   977.97748   222.00000  20.33033             14.12804
970.35676   1641.08108  185.00000  16.46392             14.36542
973.44262   1719.79098  244.00000  19.72418             15.94587
975.72340   896.46809   235.00000  23.90578             12.80911
973.10563   138.85915   142.00000  15.02775             12.21557
977.04444   183.59444   180.00000  21.09734             11.21780
973.72772   920.43564   202.00000  17.73146             14.86661
974.78037   1736.41589  214.00000  18.60487             14.68174
975.42647   360.40441   136.00000  14.72981             11.80130
978.19492   505.60593   236.00000  22.63623             13.34168
975.72727   690.87273   165.00000  16.02194             13.18882
977.06842   1420.90526  190.00000  17.75506             13.92584
978.32895   711.59211   152.00000  16.91183             11.48532
982.57202   1558.71193  243.00000  20.83039             14.96528
979.86111   1620.20000  180.00000  17.58136             13.09421
982.25444   461.81657   169.00000  15.57093             14.01420
984.52113   108.98592   213.00000  19.31069             14.09783
983.05298   346.57616   151.00000  16.70253             11.63519
986.57724   370.87805   246.00000  24.24448             13.86820
986.60930   992.38605   215.00000  18.19363             15.06134
985.81579   248.36842   190.00000  19.60077             12.37486
991.14551   1489.77090  323.00000  25.31208             16.77244
986.93373   1597.00000  166.00000  15.61385             13.59988
989.77160   554.60494   162.00000  18.55535             11.26655
988.07143   209.37500   112.00000  13.00384             11.00636
991.26071   325.79286   280.00000  23.69771             15.65024
991.23077   263.28205   156.00000  16.22907             12.29258
994.62222   690.87407   270.00000  27.40204             12.99168
993.27839   1676.28938  273.00000  21.29036             16.36382
1001.90047  391.51659   211.00000  24.98954             10.84247
995.48223   1426.08629  197.00000  20.21003             12.76969
996.64671   218.92814   167.00000  18.25751             11.67254
999.21905   1701.50952  210.00000  17.36620             15.50693
1002.52206  553.47059   136.00000  14.90946             11.77402
1006.55686  988.53725   255.00000  22.30477             14.70307
1001.55238  1621.09524  105.00000  11.84073             11.31995
1003.87356  316.27586   87.00000   13.82056             8.14110
1003.03889  347.00000   180.00000  20.04897             11.51874
1004.85000  460.39091   220.00000  19.74200             14.82361
1008.26255  168.25097   259.00000  22.20570             15.47576
1014.24920  239.83706   313.00000  28.43352             14.29520
1007.58537  1569.71220  205.00000  18.79659             14.03263
1007.75102  1895.37551  245.00000  21.86306             14.73354
1009.07246  442.72947   207.00000  17.73740             14.94706
1009.73793  261.77931   145.00000  14.67771             12.62553
1015.34848  547.90909   198.00000  17.79136             14.25377
1016.40860  133.91398   279.00000  20.95517             17.96247
1020.37218  400.54511   266.00000  28.10023             12.12127
1015.87629  192.42268   97.00000   12.58715             9.84553
1017.41584  294.64851   202.00000  17.60677             14.72490
1017.43590  470.98462   195.00000  17.77515             14.11510
1019.31707  659.74146   205.00000  18.91347             13.88007
1016.06383  1430.44681  94.00000   11.56798             10.39369
1021.15238  1680.86667  210.00000  21.60371             12.47225
1018.27679  147.24107   112.00000  12.23785             11.89572
1019.69022  501.23913   184.00000  16.74869             14.21223
1019.27660  538.59574   47.00000   9.11458              6.67007
1023.12565  1551.28272  191.00000  21.45427             11.39139
1030.87296  1583.90228  307.00000  32.01700             13.87563
1023.18571  647.28571   140.00000  16.31090             11.39346
1029.11609  876.74406   379.00000  27.51340             17.91675
1024.48404  1632.96277  188.00000  19.92573             12.03022
1026.89506  1422.16049  162.00000  19.23914             10.93789
1026.01724  1536.08046  174.00000  18.04525             12.36451
1029.49065  352.26168   214.00000  18.64080             14.67732
1028.07143  638.34921   126.00000  16.74228             9.92415
1025.95200  1433.01600  125.00000  13.75222             11.74749
1028.23485  164.52273   132.00000  13.67585             12.30749
1031.05587  260.12849   179.00000  17.86931             12.85651
1030.52593  117.82222   135.00000  14.69589             11.80158
1031.06000  717.58000   150.00000  17.65926             11.01472
1034.72131  302.62295   183.00000  20.53573             11.52954
1031.41985  219.38168   131.00000  14.25892             11.86267
1033.20513  289.07179   195.00000  17.52504             14.20056
1033.90698  1670.11628  215.00000  18.64945             14.76297
1037.87838  478.24775   222.00000  26.34356             12.12568
1034.63731  1617.31088  193.00000  18.38174             13.44396
1037.48756  629.86567   201.00000  19.84215             13.15381
1035.98667  653.10667   150.00000  15.63676             12.23766
1040.84175  990.42424   297.00000  22.78903             17.01789
1038.97596  709.92308   208.00000  19.67574             13.98047
1038.85987  487.53503   157.00000  16.27767             12.72153
1038.94030  794.98507   201.00000  18.74549             13.80997
1040.31006  810.94134   358.00000  22.31110             21.10089
1036.49286  1505.46429  140.00000  16.07702             11.11085
1044.16226  400.57358   265.00000  27.19315             12.76176
1039.90521  1463.89100  211.00000  18.41075             14.65591
1044.82937  124.81746   252.00000  21.32374             15.60161
1040.69565  167.19255   161.00000  17.25994             11.91874
1039.95706  230.36810   163.00000  17.13982             12.23009
1041.61677  1638.28144  167.00000  16.72886             12.84551
1048.48848  1412.39171  217.00000  19.70151             14.04049
1049.52027  1566.08108  296.00000  23.41526             16.77330
1047.74444  1510.03333  180.00000  17.06549             13.50456
1049.59763  536.63905   169.00000  17.11030             12.63907
1049.33793  1526.62759  145.00000  14.63402             12.62970
1053.98010  253.65672   201.00000  20.83942             12.61626
1053.65104  344.80208   192.00000  20.75424             11.84355
1053.09744  1018.28718  195.00000  19.52462             12.76875
1050.14184  1600.81560  141.00000  15.90795             11.37499
1057.93778  355.07556   225.00000  25.02375             11.71840
1056.31687  1538.83539  243.00000  23.23054             13.50984
1052.53216  1620.96491  171.00000  17.21439             12.68338
1050.94444  822.11111   36.00000   7.52146              6.11579
1055.08523  1637.25000  176.00000  17.11494             13.08916
1059.31551  184.12834   187.00000  19.45362             12.46600
1062.45531  847.25978   358.00000  24.32376             18.83722
1066.94678  735.57428   451.00000  30.17040             20.81209
1063.43846  137.29615   260.00000  19.91183             16.74312
1061.90749  218.11013   227.00000  18.51550             15.66497
1070.85868  1680.99106  559.00000  35.51119             20.91779
1062.50282  618.33333   177.00000  15.88795             14.38489
1062.48701  98.65584    154.00000  14.68617             13.38066
1065.46494  523.85609   271.00000  19.68383             18.32598
1063.90991  1914.40541  222.00000  17.56145             16.30476
1065.28571  1549.02857  140.00000  14.94123             12.12838
1064.97917  1595.33750  240.00000  22.67767             13.49668
1067.11574  1387.35185  216.00000  18.81784             15.13119
1065.14783  1476.43478  115.00000  12.90380             11.37486
1067.15447  117.34146   123.00000  14.75742             10.69628
1066.28767  280.79452   73.00000   10.40738             8.96503
1074.33223  442.38870   301.00000  27.44320             15.22729
1069.27612  234.96269   134.00000  13.70032             12.47623
1070.22414  698.22989   174.00000  18.10215             12.42710
1070.04762  343.31429   105.00000  12.35809             10.82607
1072.44578  611.54819   166.00000  17.53560             12.44880
1073.08696  662.40870   230.00000  23.25768             12.89455
1077.03802  413.79468   263.00000  23.21126             14.56413
1072.49640  1539.65468  139.00000  16.92996             10.47988
1079.28405  187.27237   257.00000  22.60143             14.62598
1082.12821  478.24786   234.00000  25.35319             12.31235
1080.62241  222.23651   241.00000  19.99812             15.48612
1082.59206  395.16245   277.00000  25.99044             14.47207
1078.42857  509.81633   98.00000   15.18535             8.47855
1079.14835  1393.98901  182.00000  17.40342             13.36462
1079.62617  1614.16355  214.00000  20.50677             13.45346
1080.56954  143.67550   151.00000  16.78393             11.47908
1084.97170  284.73113   212.00000  20.39369             13.30852
1083.78947  375.73684   171.00000  15.78315             13.87408
1080.78261  468.95652   46.00000   8.10324              7.19806
1084.05369  126.16107   149.00000  15.51926             12.30840
1089.58824  1510.08304  289.00000  24.32553             15.28118
1085.49600  1496.92000  125.00000  13.59148             11.86192
1085.03896  161.24675   154.00000  18.54079             10.59130
1087.21256  205.35266   207.00000  18.65637             14.53930
1086.92617  516.98658   149.00000  14.44524             13.23396
1094.01695  999.47458   177.00000  19.01772             11.86771
1091.60000  1475.82143  140.00000  14.71386             12.13156
1089.21622  1598.59459  111.00000  13.92978             10.15500
1097.00348  609.42509   287.00000  22.66142             16.42215
1098.74906  677.43071   267.00000  27.08987             12.99806
1094.07407  132.03704   54.00000   9.24057              7.72576
1098.04138  1603.28966  145.00000  16.53649             11.36915
1101.63306  717.21371   248.00000  20.87774             15.15754
1099.82222  117.82963   135.00000  14.14430             12.15601
1100.57447  191.51064   235.00000  21.23087             14.33408
1101.92683  850.62805   164.00000  18.81961             11.20589
1102.59890  266.71429   182.00000  18.37318             12.66634
1101.66393  103.05738   122.00000  13.58453             11.61518
1110.01613  482.42339   248.00000  30.82020             10.34647
1103.22892  1688.74096  166.00000  17.20922             12.42048
1102.52941  1949.91912  136.00000  14.08278             12.81650
1102.70000  281.30714   140.00000  13.84825             12.91364
1108.35906  1547.14765  298.00000  25.40253             15.09449
1105.63924  1438.00633  158.00000  15.09190             13.34355
1105.62903  86.33871    124.00000  13.46188             11.89327
1105.64828  150.70345   145.00000  14.71973             12.63050
1107.47170  381.67925   159.00000  16.48781             12.32179
1107.79532  838.68421   171.00000  17.91074             12.19066
1108.02927  1571.00488  205.00000  16.87031             15.53542
1108.86631  810.60963   187.00000  17.65759             13.85057
1113.26117  1007.41237  291.00000  24.48132             15.28337
1105.27586  291.67241   58.00000   10.11714             7.41517
1108.54082  1412.90306  196.00000  18.33856             13.66097
1111.11429  347.28000   175.00000  15.93440             14.07866
1110.05650  1492.29944  177.00000  16.17638             14.03074
1115.15525  595.99543   219.00000  22.01888             12.73428
1112.42466  1697.89041  146.00000  16.04180             11.69332
1113.20106  1513.52910  189.00000  19.60874             12.30137
1116.58857  234.82857   175.00000  17.30959             12.90712
1116.54749  111.59777   179.00000  20.27047             11.37098
1113.42727  1607.30909  110.00000  13.62219             10.33727
1117.80968  683.44839   310.00000  23.13417             17.80634
1118.28571  850.58730   189.00000  17.37690             13.89764
1123.00000  328.60983   346.00000  23.58315             19.84595
1123.26840  529.85714   231.00000  21.47803             14.05380
1120.63393  1616.26786  224.00000  24.06889             11.95691
1123.38208  1706.72170  212.00000  19.30462             14.29811
1121.67358  131.50259   193.00000  16.23438             15.20717
1122.56784  1452.47739  199.00000  20.29405             12.54738
1123.05419  1964.27094  203.00000  17.34085             15.11156
1126.86667  275.57667   300.00000  20.97789             18.27283
1124.87121  353.84091   132.00000  15.82276             10.66858
1128.15476  363.01190   168.00000  21.63539             9.96664
1127.64126  1370.08520  223.00000  19.32994             14.87281
1130.84950  786.32441   299.00000  26.15896             14.75429
1127.05344  179.90840   131.00000  14.48215             11.55056
1127.03550  376.23669   169.00000  17.11067             12.72331
1131.02985  308.01493   201.00000  18.49654             14.00176
1131.22078  216.74459   231.00000  20.93183             14.09923
1134.29956  577.33480   227.00000  22.39640             13.09203
1135.18557  447.38144   388.00000  25.83300             19.19525
1136.74679  639.39103   312.00000  25.05916             16.18490
1129.40385  824.78846   52.00000   10.71316             6.18146
1139.01271  1384.96610  236.00000  22.65897             13.50860
1134.15789  1417.36842  114.00000  13.16643             11.05350
1134.86624  1638.26752  157.00000  14.55756             13.78068
1134.84049  149.15337   163.00000  17.95694             11.57972
1140.10801  243.11498   287.00000  22.65885             16.30600
1137.19431  1618.55450  211.00000  21.42989             12.65788
1144.22705  1567.03623  414.00000  27.43150             20.23676
1138.98319  60.27731    119.00000  14.76072             10.40583
1139.98214  176.07143   112.00000  12.75438             11.24198
1144.28571  480.04082   245.00000  18.54721             16.97077
1146.94064  224.16895   219.00000  20.86164             13.44991
1144.71341  41.18902    164.00000  16.72725             12.57450
1146.25616  695.08867   203.00000  16.56423             15.66639
1145.42188  1000.82031  128.00000  17.75502             9.48788
1146.03241  1686.43056  216.00000  17.04654             16.19063
1145.35507  370.23188   138.00000  14.88947             11.82505
1147.72917  840.02604   192.00000  16.50461             15.05535
1147.95473  124.51029   243.00000  23.01918             13.65449
1146.38636  159.70455   176.00000  16.33496             13.74846
1147.57028  291.78313   249.00000  24.77731             13.59721
1144.33333  764.15385   39.00000   8.50094              5.85623
1150.29412  771.39216   204.00000  18.96400             13.83277
1149.48756  1475.01990  201.00000  18.01373             14.37432
1151.06635  1668.00948  211.00000  20.50535             13.34944
1150.65517  1495.49138  116.00000  14.70370             10.33079
1151.51875  1707.38750  160.00000  15.36937             13.33320
1154.52055  995.92466   146.00000  18.48700             10.13857
1156.03553  568.10660   197.00000  18.44039             13.71700
1158.73118  189.94624   279.00000  22.99403             16.62470
1153.41406  820.81250   128.00000  16.55138             10.13022
1160.23228  615.41339   254.00000  21.16290             15.46137
1162.80212  646.83039   283.00000  22.99250             16.02505
1163.31390  1409.13901  223.00000  19.63976             14.91559
1161.93333  1423.11667  180.00000  15.99522             14.50049
1164.33448  1501.83448  290.00000  22.26129             17.20385
1161.84177  439.67089   158.00000  15.16043             13.43441
1164.53271  1395.00935  214.00000  23.27531             11.88569
1163.90955  684.84422   199.00000  17.57909             14.78027
1163.92800  777.83600   250.00000  22.09310             14.83421
1167.24265  1020.00000  136.00000  19.43510             8.97280
1168.61947  1456.02655  226.00000  17.93333             16.09805
1165.63014  30.67123    73.00000   11.89260             8.29366
1167.80537  1663.65101  149.00000  14.34072             13.22205
1171.05519  228.12338   308.00000  23.60064             16.79720
1173.92553  592.81915   282.00000  25.19243             14.92364
1166.40741  761.48148   27.00000   6.72068              5.05021
1175.21667  1545.47667  300.00000  27.89758             13.90079
1178.66337  727.90099   303.00000  23.30316             17.34134
1178.31818  490.66364   220.00000  17.94684             15.64634
1178.32240  377.88525   183.00000  15.64372             14.97105
1178.00493  687.88177   203.00000  18.38203             14.53127
1176.99180  1678.24590  122.00000  13.07450             12.27114
1178.45652  433.28261   138.00000  15.39804             11.64316
1183.32353  445.96324   136.00000  16.32604             10.63289
1189.41131  1013.35990  389.00000  30.30925             16.54983
1182.15190  1385.78481  79.00000   12.46377             8.10689
1185.65385  26.30769    182.00000  18.99334             12.46168
1189.04959  713.38843   121.00000  13.22793             12.04496
1191.33516  551.99451   182.00000  17.99702             13.05027
1197.97361  632.68915   341.00000  29.47977             15.29233
1195.48927  1488.25322  233.00000  20.90387             14.61114
1189.70270  741.48649   37.00000   8.38932              5.58832
1197.56610  747.49831   295.00000  24.00004             16.06794
1198.07391  1664.36522  230.00000  19.91022             14.79970
1200.42424  473.39773   264.00000  19.63556             17.18008
1195.26087  694.78261   46.00000   9.22023              6.35978
1201.00935  499.09346   214.00000  20.01913             13.68776
1201.13900  609.75290   259.00000  20.83405             15.86988
1201.98603  372.70670   358.00000  25.62723             18.12957
1203.57480  715.75984   254.00000  21.90289             15.16858
1208.07317  849.98476   328.00000  28.37613             16.24278
1206.17972  554.29032   217.00000  23.42499             13.94273
1208.92562  160.11983   242.00000  22.23462             14.21143
1209.57059  694.45294   170.00000  19.50741             11.30768
1209.47716  331.18782   197.00000  20.10241             12.51235
1205.49057  664.32075   53.00000   8.65410              7.78403
1212.48544  645.55825   206.00000  20.02799             13.17790
1213.86740  598.22099   181.00000  18.16188             12.75526
1218.22018  1509.21560  218.00000  24.81924             11.37636
1215.46957  227.99130   115.00000  12.55124             11.69682
1221.02640  514.25413   303.00000  22.37662             17.38094
1217.44444  675.77222   180.00000  15.90173             14.54304
1216.30508  662.60169   118.00000  14.65877             10.32726
1219.93636  1533.25000  220.00000  18.78103             14.99178
1221.80620  180.19380   258.00000  19.60468             17.43040
1221.60185  532.91667   216.00000  22.01723             12.70176
1221.14815  1480.05291  189.00000  17.59263             13.67606
1223.73308  578.03008   266.00000  22.65909             15.42181
1222.82468  608.11688   154.00000  16.28329             12.11262
1224.17375  704.89961   259.00000  20.36746             16.27079
1223.33553  690.00658   152.00000  15.42200             12.96725
1226.56831  219.70492   183.00000  16.89076             13.98787
1226.74534  357.88820   161.00000  16.60053             12.52891
1228.03488  1978.47093  172.00000  16.95462             13.19781
1231.50588  1522.60588  170.00000  16.81567             12.95310
1229.80676  673.07729   207.00000  22.95111             11.69058
1233.24742  762.96907   194.00000  18.67914             13.30189
1234.64179  1490.99005  201.00000  17.63079             14.52725
1238.61589  648.32781   302.00000  23.09579             16.76921
1239.47212  857.46097   269.00000  25.73029             13.97863
1236.35632  322.70115   174.00000  19.88190             11.42527
1234.92994  1506.30573  157.00000  15.36545             13.08026
1236.97214  436.31269   323.00000  24.24165             17.15467
1236.48315  602.02809   178.00000  16.40836             13.86963
1239.11111  1461.59259  189.00000  16.47605             14.65129
1237.61983  147.13223   121.00000  15.64259             9.89146
1242.75936  1304.42781  187.00000  19.66686             12.34579
1242.21612  1645.49817  273.00000  23.65009             14.84668
1240.40870  420.33913   115.00000  13.93258             10.61811
1240.86243  1279.88889  189.00000  17.00364             14.25339
1245.11628  569.56279   215.00000  19.40978             14.16069
1243.35664  170.93706   143.00000  15.11671             12.06460
1249.49835  678.51485   303.00000  23.53397             17.20072
1251.84810  1023.80253  395.00000  24.07547             21.09883
1245.37209  764.67442   43.00000   8.34046              6.52828
1251.55612  608.20408   196.00000  20.53465             12.68372
1250.77473  2005.36264  182.00000  16.12555             14.50109
1250.35366  551.68293   82.00000   12.31263             8.49155
1249.00000  665.00000   73.00000   10.19266             9.10216
1252.72477  151.06422   109.00000  13.18678             10.96891
1254.69268  1277.61463  205.00000  16.42656             16.08022
1256.41995  1342.38845  381.00000  24.84638             20.14420
1257.45821  1424.79251  347.00000  24.18559             18.81965
1256.18750  599.50781   128.00000  15.24256             10.83287
1252.55319  646.63830   47.00000   8.37423              7.20445
1263.48921  1464.72302  278.00000  28.25484             12.62190
1258.86179  6.39024     123.00000  14.13064             11.21508
1259.72093  794.98837   172.00000  19.02066             11.62750
1262.64706  543.88235   187.00000  18.48382             13.03246
1261.44693  666.36313   179.00000  16.48271             13.84423
1262.23656  381.68817   186.00000  16.65752             14.48138
1262.34821  868.30357   224.00000  21.66704             13.20105
1263.84862  1379.15596  218.00000  18.53645             14.97435
1266.43396  635.29434   265.00000  18.97686             17.90479
1268.09790  691.49650   286.00000  21.49480             17.07578
1261.48936  844.10638   47.00000   8.79551              6.82834
1261.90909  762.72727   22.00000   6.43723              4.28143
1266.47849  2008.46774  186.00000  18.47439             12.92184
1271.00735  1484.95221  272.00000  26.12875             13.45202
1269.78771  778.51955   179.00000  16.64483             13.80830
1269.50296  154.51479   169.00000  20.53734             10.67379
1270.38378  215.16757   185.00000  17.74610             13.27056
1275.72785  600.42722   316.00000  22.92479             18.83760
1272.83974  133.14103   156.00000  15.46842             12.90195
1273.64767  444.44560   193.00000  17.07843             14.39464
1271.65263  612.37895   95.00000   12.02714             10.12779
1278.08607  652.71721   244.00000  18.06843             17.51073
1276.50610  736.64024   164.00000  20.43681             10.36749
1276.48241  2031.96482  199.00000  17.63095             14.40893
1275.93117  33.63968    247.00000  26.94151             11.77255
1277.30178  802.32544   169.00000  16.31237             13.81569
1284.02885  881.32692   208.00000  18.65380             14.20743
1283.64220  187.58716   109.00000  13.29707             10.65168
1282.35714  641.59524   42.00000   8.40587              6.30292
1285.15789  560.34586   133.00000  16.62185             10.35402
1293.06377  823.38261   345.00000  24.08031             19.31324
1295.05137  688.47603   292.00000  26.86639             14.16567
1291.66187  169.79137   139.00000  15.58912             11.46940
1287.50000  783.58824   34.00000   7.64615              5.67761
1289.55422  807.61446   83.00000   11.10805             9.51944
1290.43333  574.08333   60.00000   9.45171              8.07153
1297.01471  728.15686   204.00000  18.89973             13.97375
1300.24783  985.28261   230.00000  21.54420             13.74883
1297.53086  299.85185   162.00000  17.81463             11.58761
1298.69333  617.43333   150.00000  15.98847             11.98302
1301.15385  846.75275   182.00000  18.40723             12.80597
1304.78344  514.64331   157.00000  17.05669             11.85004
1308.15564  539.84436   257.00000  22.07537             15.15254
1313.30065  886.25163   306.00000  25.97282             15.45219
1309.03734  645.95436   241.00000  26.89907             11.72446
1311.09924  497.51908   262.00000  21.65224             15.65253
1309.23684  91.62500    152.00000  17.01207             11.47857
1310.60800  563.94800   250.00000  25.40058             12.67645
1314.57616  196.87417   151.00000  16.31784             11.82003
1316.85052  454.87113   194.00000  20.94432             11.83959
1315.42714  1434.64322  199.00000  19.73399             12.99036
1318.50867  356.62717   346.00000  22.47996             19.71733
1316.09420  605.67754   276.00000  23.17236             15.27587
1313.42500  851.71250   80.00000   10.32898             10.02495
1319.53672  436.02825   354.00000  26.00112             17.53892
1318.25588  401.67941   340.00000  26.86664             16.22518
1320.84549  1468.34335  233.00000  20.16665             14.75520
1324.23474  834.80751   213.00000  19.03087             14.48180
1319.43750  555.51562   64.00000   9.72753              8.38503
1324.92965  273.35176   199.00000  16.60103             15.30839
1327.45364  632.45033   302.00000  22.24269             17.67018
1330.07692  706.73303   221.00000  19.83336             14.23685
1336.14697  913.34870   347.00000  30.62934             14.79006
1332.41294  985.79602   201.00000  21.41978             12.08791
1335.62007  163.37276   279.00000  26.64271             13.64629
1327.66071  516.82143   56.00000   9.32315              7.71907
1333.57286  208.09548   199.00000  17.11931             14.83934
1337.43496  1449.35366  246.00000  18.38469             17.11176
1340.56904  435.46444   239.00000  20.10090             15.57300
1341.76667  522.48889   180.00000  18.79056             12.19461
1346.51092  368.23144   229.00000  17.60805             16.58844
1350.43265  616.95918   245.00000  25.61054             12.48351
1347.24103  639.28718   195.00000  18.32773             13.67082
1348.21854  536.97351   151.00000  15.77020             12.29476
1352.80447  583.31844   179.00000  15.72716             14.52980
1356.24432  971.86364   176.00000  20.56417             11.25525
1351.19355  561.29032   62.00000   11.85283             6.77861
1360.48138  682.87966   349.00000  27.24837             17.06602
1358.30070  38.81818    143.00000  16.19520             11.30963
1362.14706  512.32353   204.00000  19.38677             13.53047
1357.49057  344.58491   53.00000   8.38891              8.01885
1362.28856  192.90547   201.00000  17.20662             15.00677
1364.38889  261.60185   216.00000  20.43488             13.62379
1365.43798  919.71318   258.00000  20.32229             16.56508
1365.22674  654.01163   172.00000  16.41410             13.33588
1362.55263  620.07895   38.00000   7.22292              6.68865
1370.02232  453.45982   224.00000  20.34137             14.34206
1369.81250  639.65000   160.00000  14.71895             13.87912
1377.49355  350.10645   310.00000  21.60661             18.35541
1377.45909  845.72727   220.00000  21.56012             13.10860
1385.29185  660.44206   233.00000  19.87834             15.07470
1384.93233  827.34586   133.00000  14.04088             12.07347
1390.83529  952.75882   170.00000  21.20789             10.24704
1393.77580  936.17794   281.00000  22.60110             15.91594
1394.60000  1452.85098  255.00000  21.84445             15.07624
1393.34463  498.42373   177.00000  15.63084             14.61327
1389.20000  643.20000   20.00000   5.77414              4.44739
1396.69202  1670.52471  263.00000  21.44155             15.69029
1397.12393  584.07692   234.00000  23.52296             12.88364
1400.85772  551.26016   246.00000  26.43282             12.64127
1395.42857  1992.88312  77.00000   11.58930             8.58182
1402.10400  413.48533   375.00000  33.08517             15.85703
1400.28512  446.71074   242.00000  23.11271             13.40370
1405.29572  325.60700   257.00000  20.03131             16.43324
1407.35260  817.80925   173.00000  17.43770             12.69438
1410.69697  833.69192   198.00000  20.47479             12.35244
1410.95417  349.12083   240.00000  19.25249             15.92088
1414.62540  438.53968   315.00000  28.16440             14.59770
1414.78763  497.54032   372.00000  27.53670             17.57668
1411.61111  931.94444   54.00000   10.42556             6.55078
1418.96454  289.87234   282.00000  23.62767             15.29956
1417.26280  680.05802   293.00000  23.75192             16.16251
1418.36979  537.38542   192.00000  18.23020             13.47263
1421.08163  949.69388   294.00000  25.24783             14.98351
1419.30247  552.40123   162.00000  17.61774             12.05114
1423.75598  595.92823   209.00000  18.33708             14.67279
1421.82927  626.06504   123.00000  15.36266             10.23025
1425.93168  613.20497   161.00000  15.34716             13.39847
1430.02642  930.46415   265.00000  25.25819             13.68154
1432.25403  1438.36290  248.00000  19.53227             16.45901
1429.99617  1458.73563  261.00000  19.77376             17.11362
1434.96035  792.21145   227.00000  19.12746             15.19067
1431.17949  523.64103   78.00000   10.85023             9.25441
1437.19931  582.50172   291.00000  21.28131             17.56939
1435.28070  1497.29825  342.00000  25.14254             17.89964
1439.75745  513.79574   235.00000  20.52967             14.77679
1443.85763  355.44407   295.00000  26.16319             14.44691
1439.12667  539.38000   150.00000  19.11972             10.13390
1442.90647  567.68345   139.00000  15.94648             11.22541
1446.64955  267.80967   331.00000  23.40245             18.10654
1444.99130  852.59565   230.00000  17.69035             16.98029
1447.43519  870.26389   216.00000  18.89045             14.75626
1448.17297  427.80000   185.00000  16.95164             14.00383
1453.92414  455.57931   290.00000  26.20606             14.15875
1450.11111  1427.39316  234.00000  19.55974             15.62303
1447.62778  1978.90556  180.00000  18.21588             12.74188
1453.64286  413.71429   154.00000  17.47484             11.29348
1453.08824  1401.98162  272.00000  24.48531             14.31735
1454.02113  547.60563   142.00000  15.92103             11.34962
1456.70286  776.64000   175.00000  17.77551             13.02292
1456.52778  888.42593   216.00000  19.46759             14.23694
1460.01887  215.77358   212.00000  21.34306             12.69478
1459.91150  200.74336   226.00000  19.69425             14.86404
1460.48611  361.64352   216.00000  18.19377             15.26271
1460.17308  1417.70513  156.00000  16.20735             12.34401
1460.11905  2022.16667  84.00000   12.84950             8.32267
1465.95312  533.30469   128.00000  13.98720             11.69242
1473.64865  1362.12162  296.00000  30.99391             12.88109
1481.04945  866.17033   182.00000  17.84303             13.04859
1481.24490  507.25170   147.00000  16.91226             11.26078
1484.19196  1417.10714  224.00000  19.07530             15.10921
1486.20856  594.51337   187.00000  22.42304             10.67235
1487.92260  562.77090   323.00000  22.88206             18.33998
1485.58252  769.27184   206.00000  17.97851             14.62894
1486.33880  885.19672   183.00000  18.10133             12.88307
1488.38683  384.04938   243.00000  18.36376             17.08155
1488.19412  1032.13529  170.00000  17.13491             12.66000
1494.44840  1576.43772  281.00000  23.85035             15.40980
1491.24444  1316.61667  180.00000  16.70866             14.02547
1493.39614  1353.65217  207.00000  19.07169             13.93629
1491.43158  512.09474   95.00000   11.77794             10.26637
1493.82381  446.09524   210.00000  23.58646             11.70710
1496.61832  1124.85878  262.00000  24.79637             13.61470
1498.38636  418.26136   264.00000  22.28495             15.19837
1498.15596  979.64220   218.00000  18.98963             14.66828
1502.21771  1030.36531  271.00000  24.74221             14.06414
1500.87591  1871.78102  137.00000  16.55697             11.64464
1501.59341  899.78022   182.00000  15.84131             14.86820
1504.06838  1405.05128  234.00000  23.77175             12.66466
1503.88578  1077.49417  429.00000  30.90355             18.22513
1502.94222  1298.33333  225.00000  18.73613             15.54397
1504.38839  459.94196   224.00000  23.87031             12.07231
1509.21591  1268.36932  176.00000  20.49880             11.19489
1506.90909  587.03030   33.00000   7.41903              5.66425
1512.92593  611.58519   270.00000  23.75420             15.38472
1511.77273  727.54545   198.00000  19.25214             13.16602
1511.28994  843.64497   169.00000  16.62824             12.97783
1515.99430  323.34188   351.00000  22.66190             20.17666
1511.12857  976.00714   140.00000  14.64933             12.48955
1518.07273  559.54026   385.00000  26.61562             18.77487
1513.16107  874.31544   149.00000  16.56875             11.51041
1515.26087  1259.59420  138.00000  15.61537             11.55085
1514.85115  1157.13359  262.00000  23.47834             14.30120
1519.64931  392.77778   288.00000  23.13177             15.97557
1516.42373  488.79661   177.00000  15.63808             14.43339
1519.54706  742.61765   170.00000  18.24715             11.89992
1520.35000  912.00000   200.00000  18.92192             13.60591
1520.17453  1109.30189  212.00000  19.60323             13.88749
1519.77551  1320.97279  147.00000  15.05990             12.69958
1523.33333  414.53846   195.00000  17.50443             14.26341
1525.02817  1878.92488  213.00000  17.21019             15.84808
1526.62874  868.80240   167.00000  17.66799             12.08082
1530.88889  1061.32828  198.00000  17.28269             14.76253
1533.19200  1097.31200  250.00000  19.70547             16.48694
1527.90909  1153.70455  44.00000   8.27194              6.78572
1531.57724  1114.21951  123.00000  14.70262             10.75555
1536.60109  618.86339   183.00000  17.29383             13.46853
1544.15313  1226.82500  320.00000  29.61654             15.21333
1537.68627  1210.26144  153.00000  15.61742             12.51678
1540.11348  331.74823   282.00000  22.54177             16.12658
1541.86297  536.61516   343.00000  22.80234             19.24694
1538.83962  1192.31132  106.00000  13.00626             10.69860
1541.37821  1847.50000  156.00000  17.17339             11.68019
1542.00457  1080.10046  219.00000  19.08115             14.81280
1543.37288  1119.65678  236.00000  18.25693             16.53754
1546.42146  1260.68966  261.00000  22.93503             14.56995
1543.36842  1303.18660  209.00000  20.93181             13.08681
1548.44444  1176.83556  225.00000  18.65406             15.92223
1549.60111  403.03601   361.00000  25.13329             18.92719
1546.08876  1059.04734  169.00000  15.19627             14.22766
1546.59223  1348.27184  206.00000  20.30357             13.06295
1554.06344  1539.59215  331.00000  26.22346             16.19434
1550.93243  483.39189   148.00000  16.08258             11.74544
1554.55844  833.30303   231.00000  19.35036             15.29581
1555.68990  901.38676   287.00000  22.82208             16.19872
1550.79310  621.50000   58.00000   9.44963              7.79604
1558.91406  999.38672   256.00000  19.94765             16.47780
1561.30800  1357.35200  250.00000  20.03323             16.03102
1560.35976  469.73780   164.00000  15.39769             13.61971
1564.13359  1017.13740  262.00000  24.00396             13.91855
1561.02139  1339.71658  187.00000  15.95624             15.04144
1568.20263  804.78421   380.00000  30.20313             16.16268
1563.95425  1044.56209  153.00000  19.33228             10.39093
1566.68852  1138.61202  183.00000  17.25496             13.70851
1571.56782  1308.46057  317.00000  23.89387             17.43308
1572.56352  1205.85016  307.00000  22.58115             17.44718
1569.45614  412.45029   171.00000  15.23833             14.35080
1571.79394  1169.67879  165.00000  17.83369             11.91151
1569.42478  1185.83186  113.00000  14.24530             10.41600
1571.95556  1036.27778  90.00000   13.38758             8.72009
1577.03404  967.38723   235.00000  21.81385             14.02376
1578.01399  1123.70629  143.00000  15.53372             11.90663
1578.89510  366.10839   286.00000  19.57672             18.64792
1581.10145  332.40580   207.00000  22.67927             12.11344
1583.79924  434.59848   264.00000  25.06723             13.50591
1579.60476  557.95714   210.00000  19.31393             13.89708
1582.61161  1085.87946  224.00000  19.93996             14.34405
1583.51527  892.70611   262.00000  19.41558             17.24367
1580.01031  1037.80412  97.00000   12.90639             9.78455
1586.72083  343.99583   240.00000  17.90533             17.32874
1586.45327  1189.25701  214.00000  17.57541             15.76563
1586.57273  1957.59091  110.00000  13.21204             10.82370
1590.97600  1031.14400  250.00000  20.25402             15.80866
1590.75789  986.75789   95.00000   14.96216             8.28602
1591.49606  1120.34646  127.00000  15.75300             10.43772
1592.54589  1940.44444  207.00000  18.19353             14.50518
1599.05474  1197.69343  274.00000  25.25699             14.10311
1599.55700  1270.93811  307.00000  25.84985             15.83006
1596.92276  830.20732   246.00000  19.88541             15.91896
1596.64122  929.37786   262.00000  23.72743             14.65094
1600.72222  993.29167   216.00000  20.42240             13.66111
1595.57664  1160.10949  137.00000  14.61272             12.02643
1598.05128  491.68718   195.00000  16.20391             15.35460
1598.46460  1129.52655  226.00000  19.45968             15.06967
1601.22373  1243.53220  295.00000  22.35547             17.25930
1602.93976  806.78313   249.00000  19.04398             16.72318
1599.90476  1306.97619  42.00000   8.07458              6.57407
1608.97076  952.66082   171.00000  18.25649             11.96113
1611.44737  1029.67105  152.00000  16.25667             11.95816
1612.15060  1113.97590  166.00000  18.23590             11.68648
1611.66029  1323.90431  209.00000  17.92376             15.20637
1614.66667  553.12222   270.00000  21.19614             16.55596
1612.94203  740.50725   207.00000  17.58662             15.11979
1610.41143  825.99429   175.00000  20.10019             11.11983
1612.54483  1006.41379  145.00000  16.14370             11.72216
1616.39429  1303.01714  175.00000  15.69644             14.46329
1616.38164  393.76812   207.00000  16.83500             15.73945
1617.09091  492.18831   154.00000  14.83639             13.29633
1615.86061  1190.16970  165.00000  17.82916             11.82874
1616.09174  1225.76147  109.00000  12.74636             11.03825
1620.06452  1041.13364  217.00000  17.59088             15.80865
1621.80072  309.45290   276.00000  20.79007             17.00215
1620.13873  909.32370   173.00000  16.85609             13.06069
1621.89669  941.43388   242.00000  22.77420             13.63773
1629.02989  1156.10054  368.00000  31.36307             15.83362
1631.29958  918.21097   237.00000  31.95577             10.91612
1623.65409  1002.47799  159.00000  17.52312             11.70815
1630.34392  334.69048   378.00000  28.94048             17.23652
1629.41131  1256.67251  513.00000  36.47318             18.77220
1627.16176  450.88725   204.00000  19.93194             13.15585
1624.57857  749.02857   140.00000  15.05263             11.87282
1625.33679  1494.00000  193.00000  16.87883             14.67171
1625.98561  981.07194   139.00000  15.74853             11.24539
1635.43966  846.46983   232.00000  22.70892             13.09742
1637.43049  1311.91928  223.00000  19.52985             14.59590
1639.73047  1009.88672  256.00000  21.22449             15.55726
1637.78241  1038.81019  216.00000  18.82749             14.87874
1637.76101  419.71069   159.00000  15.82211             12.81455
1642.20819  517.76109   293.00000  25.42115             14.86669
1640.73077  560.87363   182.00000  18.03545             12.97799
1640.86290  1023.35484  124.00000  14.03364             11.28372
1645.74797  1071.56098  246.00000  24.95053             13.57563
1641.24224  1110.44720  161.00000  14.55714             14.12282
1642.31455  537.38498   213.00000  19.17987             14.23907
1639.07692  621.98077   52.00000   9.96075              6.66148
1648.10345  1203.52414  290.00000  26.86155             14.67113
1646.89655  1460.40125  319.00000  23.49342             17.56587
1650.12146  429.42105   247.00000  19.29631             16.42838
1648.41631  1162.81545  233.00000  18.93992             15.82266
1647.00000  1513.84672  137.00000  14.73817             11.82791
1649.26000  448.67333   150.00000  15.60811             12.30710
1649.29545  1094.87879  132.00000  13.97798             12.11871
1649.27586  1286.71552  116.00000  12.82962             11.58740
1652.64667  1390.00667  300.00000  21.89333             17.78887
1652.79921  1574.46457  254.00000  20.25587             16.06763
1650.48611  1061.72222  144.00000  14.57466             12.61866
1650.44898  1276.68367  98.00000   13.58587             9.31018
1648.29070  1296.79070  86.00000   11.20488             10.01522
1654.11489  589.38723   235.00000  18.43153             16.43246
1652.43182  1268.68182  88.00000   14.14722             7.99877
1654.48867  620.81230   309.00000  23.76552             16.71947
1657.33333  672.16140   285.00000  21.56876             16.87989
1658.09906  953.08491   212.00000  17.49221             16.08747
1657.82818  1411.14089  291.00000  21.74892             17.18893
1665.95946  909.02365   296.00000  26.91354             14.24891
1659.02381  1167.16667  84.00000   11.97323             8.97604
1662.15556  1228.42222  135.00000  16.35987             10.53479
1662.39873  989.72785   158.00000  14.22382             14.15751
1663.05376  1431.82258  186.00000  16.23424             14.62015
1663.96380  1497.95928  221.00000  20.06366             14.07444
1662.80000  607.64286   140.00000  15.28639             11.83649
1664.26531  1122.03061  98.00000   12.63860             10.04185
1669.62946  1135.27679  224.00000  23.23480             12.49314
1667.85955  686.48876   178.00000  16.36036             13.89603
1668.97740  891.01130   177.00000  19.39274             11.71997
1666.33766  966.94156   154.00000  14.19294             13.84163
1669.22180  1253.18797  266.00000  20.12883             17.28412
1668.79290  1473.30769  169.00000  17.34560             12.42184
1669.86667  1172.12222  180.00000  15.91630             14.47193
1667.20000  1204.20000  110.00000  13.46900             10.52773
1672.74419  1351.61794  301.00000  23.31091             16.80323
1677.33195  825.93776   241.00000  22.94729             14.29488
1669.44800  1189.45600  125.00000  16.45973             9.74120
1672.37805  1015.26220  164.00000  16.85798             12.42862
1680.49390  1046.83841  328.00000  29.77979             14.47671
1677.62644  1120.68966  174.00000  19.01961             11.79899
1674.53846  1292.23077  39.00000   8.20062              6.03215
1680.96377  295.49638   276.00000  21.49560             16.44329
1679.88325  1094.63452  197.00000  17.22381             14.92690
1681.30864  709.22222   243.00000  18.60913             16.68577
1678.00870  1162.66957  115.00000  15.05973             9.85702
1684.38686  1229.21898  274.00000  21.56331             16.67750
1685.96957  1188.80000  230.00000  24.53842             12.46047
1682.88950  1454.24309  181.00000  17.68538             13.12533
1679.74286  1958.79048  105.00000  14.03082             9.66902
1681.13043  1006.46957  115.00000  15.81205             9.30758
1682.61111  1405.51042  288.00000  27.06181             13.62243
1685.21961  1333.48235  255.00000  22.17888             14.66954
1689.28223  996.57491   287.00000  24.77439             15.16786
1686.48020  519.13861   202.00000  17.67360             14.58888
1686.40000  1107.76923  130.00000  14.35916             11.59851
1689.68023  1205.00581  172.00000  19.19155             11.47298
1689.66165  1275.37594  266.00000  20.28442             16.71606
1688.38618  1061.71138  246.00000  23.60848             13.43071
1689.98352  1468.46703  182.00000  17.29043             13.43636
1691.12821  1387.62564  195.00000  17.05390             14.65895
1692.28889  15.50667    225.00000  18.10803             15.98968
1694.07059  1501.64706  170.00000  15.21614             14.51964
1696.07583  1517.67773  211.00000  19.39127             13.95481
1699.62264  455.35849   265.00000  22.20570             15.41252
1696.31414  833.28272   191.00000  15.87371             15.40772
1695.48551  1120.74638  138.00000  14.93580             11.87640
1699.04575  1261.46405  153.00000  18.98033             10.41775
1697.65333  1883.25333  75.00000   11.39256             8.52643
1707.62706  878.16832   303.00000  26.72312             14.64120
1701.59848  1043.28030  132.00000  13.57679             12.39566
1704.08696  1154.90435  115.00000  14.35273             10.43370
1707.69939  1284.26994  163.00000  17.71245             11.93956
1709.30769  1057.04396  182.00000  16.18480             14.33894
1708.78095  1452.67143  210.00000  17.75805             15.08656
1712.22115  1183.52404  208.00000  16.61526             16.17890
1712.78351  1108.24742  97.00000   11.78815             10.62243
1714.53110  1387.21531  209.00000  19.36031             13.79897
1713.71698  1153.50000  106.00000  12.81481             10.59766
1717.74057  1429.94340  212.00000  20.66681             13.33106
1716.02400  1214.41600  125.00000  15.50066             10.34560
1723.33333  1271.93464  153.00000  20.93145             9.73247
1730.12238  1344.87063  286.00000  25.56021             15.26046
1724.42798  1361.73663  243.00000  18.98072             16.35223
1720.51389  1106.05556  72.00000   12.30614             7.54659
1727.09890  1414.04396  182.00000  17.36006             13.40417
1724.01765  1463.54706  170.00000  16.58009             13.11762
1726.10448  1119.02239  134.00000  16.01749             10.77742
1728.45299  1398.53846  234.00000  18.64204             16.59899
1735.01355  287.95393   369.00000  26.21739             18.44831
1732.28313  1280.98193  166.00000  18.08860             11.75642
1731.28652  1176.73034  178.00000  22.78726             10.50921
1730.68182  1259.73864  88.00000   11.01620             10.29225
1733.62992  1081.98425  127.00000  14.88876             11.03197
1737.38172  1226.61828  186.00000  18.13315             13.21247
1741.67267  816.67868   333.00000  26.40660             16.24912
1736.66272  1110.29586  169.00000  16.94065             12.76719
1736.90612  1471.38776  245.00000  19.72891             15.85016
1739.19024  1495.61463  205.00000  21.62869             12.45777
1738.56906  1314.88950  181.00000  15.91585             14.79603
1742.90500  1558.78500  200.00000  22.58328             11.65467
1740.34518  697.52792   197.00000  18.56002             13.56103
1741.02740  1164.34247  146.00000  15.09306             12.31588
1742.99123  852.81140   228.00000  21.27708             13.72844
1742.91189  1380.85022  227.00000  18.54483             15.78694
1745.50691  1330.56221  217.00000  19.56330             14.34525
1741.10377  1435.14151  106.00000  13.74135             9.88822
1747.58673  1302.88776  196.00000  22.31744             11.28380
1751.77372  485.74818   274.00000  22.85158             16.29475
1747.62963  1188.85185  243.00000  21.31746             14.94377
1753.15986  665.45238   294.00000  23.93660             16.51907
1751.16667  1507.05729  192.00000  19.65635             12.64441
1751.47239  1038.80368  163.00000  14.58038             14.42767
1751.72277  1236.61386  101.00000  13.26936             9.70617
1754.96373  830.84974   193.00000  16.46706             14.94576
1754.14368  1210.36782  174.00000  18.13852             12.27999
1758.24277  1352.39306  173.00000  16.17301             13.69828
1759.05797  1461.07729  207.00000  16.99176             15.54610
1761.20202  289.98990   198.00000  18.59893             13.84806
1760.74597  952.05645   248.00000  23.68815             13.42774
1760.80000  1003.91000  200.00000  18.22499             14.05277
1764.14079  923.79422   277.00000  23.10009             15.31491
1759.08772  1046.52632  114.00000  15.82636             9.30512
1760.62500  1131.65000  80.00000   10.18479             10.04291
1765.56426  1418.05016  319.00000  21.69179             18.84750
1764.56593  1163.23077  182.00000  17.80301             13.06533
1764.53595  1326.44444  153.00000  14.96544             13.08062
1765.35088  1540.82456  171.00000  22.83544             10.90355
1765.91518  1093.40179  224.00000  21.54613             13.37890
1770.70169  730.08814   295.00000  24.41420             15.43709
1766.58955  876.22015   268.00000  19.61167             17.46044
1767.37037  1068.62963  189.00000  17.16703             14.03525
1773.02137  1193.10684  234.00000  22.03288             13.69646
1770.74370  1293.26050  238.00000  20.91224             15.28233
1773.02174  968.26957   230.00000  18.70544             15.98795
1773.82249  1314.00000  169.00000  16.07808             13.49020
1771.80556  1281.45833  72.00000   11.52831             7.98741
1775.64394  1525.63258  264.00000  22.80527             14.91098
1780.19124  595.24303   251.00000  21.42088             15.01919
1777.86713  1103.28671  143.00000  14.77459             12.37533
1778.37017  1381.98343  181.00000  15.92564             14.50473
1780.25294  904.10588   170.00000  17.49615             12.49844
1782.22222  1261.12346  162.00000  20.88595             10.08004
1782.26667  641.14444   180.00000  16.07985             14.33760
1784.97059  1589.81933  238.00000  22.36009             13.82463
1787.42667  1011.72444  225.00000  22.09697             13.23583
1784.90566  1158.83019  53.00000   9.87956              6.83347
1785.02500  1086.65000  40.00000   8.27134              6.16562
1787.62147  1479.32203  177.00000  16.31774             13.83906
1788.69369  1309.96396  111.00000  14.03992             10.13016
1789.37195  886.09756   164.00000  17.20572             12.17103
1790.71144  1173.00995  201.00000  16.83301             15.23457
1793.49774  1115.90045  221.00000  18.02484             16.09800
1794.22266  1031.37500  256.00000  20.57575             16.02835
1791.45370  1072.42593  108.00000  13.00680             10.73059
1795.19524  1353.85714  210.00000  20.94712             12.94589
1792.02027  1394.84459  148.00000  17.10705             11.10802
1795.70051  824.77665   197.00000  18.33803             13.77709
1799.90385  1339.00769  260.00000  21.51462             15.62010
1797.12838  1503.21622  148.00000  16.90865             11.65748
1799.52736  569.40796   201.00000  20.53832             12.76033
1799.33708  1158.07865  178.00000  16.77643             13.69838
1800.49704  1096.32544  169.00000  15.63671             13.83161
1799.24868  1212.77249  189.00000  17.01350             14.16245
1799.23377  1244.24675  77.00000   13.12020             7.56866
1804.96744  1252.81395  215.00000  23.03157             12.02592
1803.97076  1071.63158  171.00000  15.65489             13.96872
1805.40000  1133.21333  150.00000  14.68691             13.03507
1807.37162  1291.47297  148.00000  15.16826             12.44772
1805.64596  1452.17391  161.00000  17.72832             11.69965
1809.00000  839.36161   224.00000  17.19458             16.76851
1808.78571  888.33810   210.00000  20.39409             13.30497
1806.02000  55.26000    50.00000   8.39284              7.72478
1812.14535  1177.17442  172.00000  19.79379             11.10771
1810.81863  1151.72549  204.00000  19.67045             13.54615
1812.42326  980.34884   215.00000  19.89604             13.93154
1815.59274  1222.54435  248.00000  20.54970             15.51666
1814.75773  1557.22680  194.00000  23.41827             10.70734
1815.11842  1465.44079  152.00000  17.13574             11.38704
1816.37576  966.09091   165.00000  17.77146             11.87162
1816.85315  1056.33566  143.00000  17.74718             10.32521
1817.88806  1115.27612  134.00000  17.50628             10.69199
1815.68966  1513.10345  174.00000  16.59785             13.85455
1818.67873  794.17647   221.00000  20.24413             13.96466
1819.20657  1299.97183  213.00000  17.96025             15.23653
1817.63793  1369.97701  174.00000  18.54225             12.01957
1822.51961  1029.30882  204.00000  25.78349             10.20731
1820.37344  1193.06224  241.00000  17.87344             17.41577
1824.15564  1582.00778  257.00000  22.42830             14.83682
1821.80000  1075.19231  130.00000  14.05474             11.81402
1823.87624  992.18317   202.00000  18.28413             14.09858
1823.89431  779.69106   123.00000  14.71053             10.70104
1829.08295  301.31336   217.00000  20.06073             13.90210
1826.81279  521.23744   219.00000  18.95003             14.96602
1829.44776  1039.58706  201.00000  19.03371             13.83703
1832.86713  858.57343   286.00000  26.32302             14.07532
1829.01739  911.53043   230.00000  19.23378             15.53085
1831.05046  842.45872   218.00000  19.91255             14.01474
1833.26761  873.72770   213.00000  19.57250             13.94331
1831.80784  1129.75294  255.00000  20.55914             15.98153
1832.05594  1237.87413  143.00000  17.18519             10.71314
1832.84247  1319.88356  146.00000  18.88885             9.90198
1834.57299  473.71898   274.00000  22.53190             15.94566
1832.75796  962.29936   157.00000  15.18681             13.23414
1836.03012  1012.60843  166.00000  16.06513             13.32714
1836.01802  973.86486   111.00000  14.40379             9.88307
1840.13360  1073.26316  247.00000  21.61712             15.05412
1836.86607  1227.99107  112.00000  13.03769             10.92908
1840.49495  944.01010   198.00000  16.16686             15.65552
1841.52381  1447.16190  105.00000  14.08074             9.79258
1845.01429  1570.25238  210.00000  21.33852             12.70423
1841.91729  1289.68421  133.00000  13.69929             12.40333
1843.61268  27.57042    142.00000  16.38431             11.29396
1841.63636  1090.93636  110.00000  13.25805             10.71651
1842.61607  1187.48214  112.00000  13.63014             10.60991
1852.46743  713.95402   261.00000  25.06103             13.82822
1850.50000  1301.00000  206.00000  23.13298             11.50986
1846.13699  322.52740   146.00000  15.98573             11.64693
1848.60280  911.59813   214.00000  17.12201             15.95231
1850.25234  1415.29439  214.00000  19.33759             14.16418
1847.76510  730.51678   149.00000  14.71400             12.90883
1848.43548  1101.16129  124.00000  13.74751             11.62064
1852.32159  1378.48018  227.00000  22.31311             13.50239
1853.17886  1164.33333  123.00000  14.84459             10.78008
1856.65581  1208.52558  215.00000  17.80618             15.71287
1856.55307  1027.73184  179.00000  17.94003             13.02764
1860.56633  1074.31633  196.00000  19.58111             12.82101
1863.75238  1343.74762  210.00000  18.94291             14.14228
1863.32402  777.26816   179.00000  16.34908             13.98483
1863.17442  1146.53488  86.00000   12.75642             8.87249
1869.78926  1012.15289  242.00000  22.27491             14.13279
1865.95074  1243.31034  203.00000  17.98454             14.40652
1869.96525  915.09653   259.00000  20.61694             16.30718
1869.96951  827.23780   164.00000  17.55145             12.06093
1872.48101  853.28692   237.00000  19.68209             15.48870
1873.30531  1562.83628  226.00000  21.47116             13.48115
1871.98235  1047.75294  170.00000  18.86461             11.68776
1869.94382  1540.70787  89.00000   11.50014             9.84797
1872.68750  1600.31818  176.00000  17.76523             12.72919
1874.85227  950.00568   176.00000  17.42095             13.04806
1873.78710  1058.98065  155.00000  18.78041             11.21335
1875.91111  1467.90000  180.00000  19.21782             11.97730
1874.28169  1200.45070  142.00000  14.26137             12.67950
1874.07857  1437.60000  140.00000  15.25113             11.75227
1876.18367  984.79592   196.00000  19.40127             13.09996
1875.56291  1154.21192  151.00000  16.59931             11.67321
1879.55838  1220.11675  197.00000  16.94678             14.90362
1880.03846  959.34615   78.00000   10.49926             9.59856
1884.24138  1142.85517  145.00000  16.26805             11.34353
1884.33871  1266.48387  124.00000  13.17410             12.00901
1882.88073  1510.70642  109.00000  15.70478             9.17770
1885.54545  763.72727   99.00000   14.69718             8.80439
1888.28899  774.50459   218.00000  18.19594             15.46385
1889.62456  1092.62807  285.00000  21.14107             17.28554
1889.39544  1485.90114  263.00000  19.01856             17.67087
1888.56738  1051.19858  141.00000  14.29691             12.57605
1886.60274  1407.34247  73.00000   10.81553             8.63527
1888.73913  1195.50000  92.00000   13.40456             8.84226
1891.11170  972.12766   188.00000  17.80002             13.47247
1893.46734  1065.54774  199.00000  23.07786             11.13021
1890.23438  1254.64062  64.00000   10.72360             7.71745
1894.01031  1223.44330  97.00000   13.84576             8.94164
1898.40625  1434.42500  160.00000  17.30570             11.81026
1898.78151  1604.87395  119.00000  14.23677             10.65236
1902.81395  997.82946   258.00000  21.13474             15.61334
1899.38532  1037.28440  109.00000  13.46505             10.32920
1901.37500  1106.10870  184.00000  20.19879             13.54238
1900.41781  1312.53425  146.00000  16.48406             11.26692
1905.05923  793.35889   287.00000  23.37930             15.82049
1903.87179  732.37179   234.00000  18.42566             16.20288
1905.00000  1137.08173  208.00000  22.49027             12.21617
1907.12925  1393.60204  294.00000  21.30685             17.79033
1906.34450  896.54067   209.00000  16.39264             16.27742
1905.19767  1362.37209  86.00000   12.18286             9.02671
1909.11340  827.38144   194.00000  17.40343             14.24633
1910.17112  962.71123   187.00000  15.89392             15.12719
1911.65574  1466.87978  183.00000  17.41680             13.71420
1921.53153  461.58108   222.00000  22.92942             12.43193
1917.07463  1067.43284  134.00000  13.89866             12.26731
1919.02239  1179.91791  134.00000  16.79837             10.20231
1919.18400  1031.84800  125.00000  16.06006             9.90086
1919.94410  1533.90062  161.00000  17.44195             11.85283
1920.09043  1153.93617  188.00000  17.02648             14.34041
1922.44000  1082.88571  175.00000  16.24006             13.73108
1926.00905  806.75113   221.00000  22.36060             13.51544
1926.44670  1113.62944  197.00000  17.58104             14.41074
1925.90351  1623.35965  114.00000  12.55547             11.79360
1928.51648  853.23626   182.00000  16.47102             14.15244
1928.02222  1377.28148  135.00000  13.88028             12.39666
1929.10000  1256.68000  150.00000  14.59932             13.17756
1929.05102  881.58163   98.00000   11.74037             10.64718
1934.93074  907.00866   231.00000  24.06900             12.78254
1935.72300  1165.10798  213.00000  21.73734             12.60407
1935.71875  1354.31250  160.00000  17.27528             11.84215
1945.56767  932.06767   266.00000  22.89914             16.16904
1938.60684  1189.70940  117.00000  12.71809             11.77125
1942.61792  954.81604   212.00000  18.19130             14.87848
1941.22000  982.48667   150.00000  15.65546             12.20912
1944.63507  1202.00948  211.00000  16.69029             16.26625
1944.68148  1399.75556  135.00000  14.99192             11.48961
1946.11842  846.24342   152.00000  15.24597             12.95208
1948.24490  1045.97279  147.00000  16.61085             11.43836
1949.51813  993.25907   193.00000  16.49351             14.96053
1950.83249  1020.18274  197.00000  18.31420             13.92411
1950.99194  1136.60484  124.00000  16.01804             9.89071
1951.27979  968.91710   193.00000  16.62840             14.97283
1955.92982  1056.57895  114.00000  13.00562             11.38828
1959.81548  1081.77381  168.00000  14.88276             14.39898
1963.95763  1219.25424  118.00000  12.80234             11.91153
1965.52542  839.61017   118.00000  13.65940             11.17788
1968.80000  925.58667   225.00000  21.30030             13.80078
1964.96273  1032.67081  161.00000  16.22730             12.76493
1965.15951  1135.37423  163.00000  16.23550             12.81367
1966.50000  1622.81250  160.00000  15.83695             12.89296
1970.39381  880.03540   226.00000  21.81470             13.27676
1972.38636  1284.93939  132.00000  14.39773             11.76863
1976.71429  1271.36364  77.00000   11.70773             8.40381
1979.08661  950.85039   127.00000  14.66243             11.01893
1979.29189  1028.46486  185.00000  16.95604             13.96198
1981.55500  1100.22000  200.00000  18.93862             13.62446
1978.10769  1085.33846  65.00000   11.31311             7.43969
1983.69512  1011.81707  164.00000  16.87940             12.41123
1984.59690  914.09302   129.00000  14.12553             11.72928
1987.92361  1287.73611  144.00000  15.29155             12.16392
1989.33129  1247.85890  163.00000  15.74947             13.38399
1988.19231  1441.44231  104.00000  12.83765             10.39655
1992.16111  1223.57222  180.00000  16.53330             13.94975
1995.35075  887.52985   134.00000  13.78707             12.54460
1995.03333  1066.90833  120.00000  14.01779             10.91861
1998.97500  687.78125   160.00000  15.68723             13.10859
1997.14865  1263.44595  74.00000   11.76897             8.04106
2005.20652  1006.32065  184.00000  18.47052             12.80248
2006.63636  884.46753   154.00000  15.48842             12.94552
2012.51656  1343.49007  151.00000  16.29949             11.80033
2016.38816  1078.94079  152.00000  17.10853             11.32253
2018.89385  858.11732   179.00000  17.49543             13.07011
2017.78981  1226.28662  157.00000  15.94815             12.72309
2023.69547  1021.20165  243.00000  18.49607             16.87889
2022.39024  1126.25610  82.00000   10.87528             9.66756
2027.06061  1235.91919  99.00000   17.23652             7.96658
2028.42925  786.00000   212.00000  19.64615             13.79588
2031.01282  1070.32051  156.00000  16.30272             12.22275
2039.15972  912.41667   144.00000  15.63640             11.84086
2041.83333  1270.28704  108.00000  12.92255             10.74901
2044.90000  1440.26000  50.00000   10.55010             6.20433