# Filename: Nuclei_416_ctrl_60x_003.npz
# Voxel size (nm): (108, 108)
# Area quantity: voxels
# Num nuclei detected: 984
Y           X           AREA       MAJOR_AXIS_LENGTH    MINOR_AXIS_LENGTH
20.93617    1533.72340  141.00000  18.10365             10.16411
33.97581    1496.37903  124.00000  13.85692             11.44977
48.19892    590.47312   186.00000  16.27252             14.69332
51.77311    1459.39496  119.00000  13.34380             11.37896
59.02778    1471.18333  180.00000  17.67843             12.98849
58.92857    417.23571   140.00000  13.67157             13.08883
57.47423    1529.63918  97.00000   12.87919             9.75535
66.68862    338.26347   167.00000  16.59810             12.89187
66.78218    385.00990   101.00000  12.06911             11.19191
70.82000    216.20500   200.00000  18.37247             13.97361
75.29630    447.64198   162.00000  15.67172             13.29730
99.29365    460.35714   126.00000  14.72267             10.94924
102.43023   733.68217   258.00000  19.69118             16.88784
101.10526   771.72632   95.00000   14.10881             9.60632
104.65363   326.94972   179.00000  19.29751             11.96239
117.05128   672.27692   195.00000  16.72890             14.89460
123.94375   1559.55000  160.00000  14.79603             13.94586
131.79255   1597.44149  188.00000  16.96826             14.14871
139.43390   647.90169   295.00000  22.03447             17.14998
135.41727   1681.43165  139.00000  15.11640             11.85406
133.98750   329.15000   80.00000   11.02235             9.63043
138.98598   1174.07009  214.00000  20.36537             13.41681
146.24481   682.56017   241.00000  20.72943             14.89869
149.02847   580.02135   281.00000  23.10004             15.92525
146.83237   1707.47977  173.00000  17.67022             12.84235
154.07944   487.33645   214.00000  20.30608             13.51335
162.77130   337.37668   223.00000  17.95709             15.85460
171.39024   358.43902   82.00000   12.57623             8.57824
178.00885   734.06637   226.00000  20.65352             14.05102
179.99111   491.18667   225.00000  18.91017             15.27111
186.22697   841.44079   304.00000  22.36367             17.89991
193.91770   797.45267   243.00000  20.37752             15.32754
194.72115   142.92308   104.00000  13.41298             9.89869
199.75000   262.29412   204.00000  17.25937             15.09852
207.50244   880.91220   205.00000  23.78181             11.13026
218.23776   316.05594   143.00000  14.68843             12.44042
236.66438   424.28082   292.00000  21.87455             17.18160
241.22397   856.76972   317.00000  27.40088             14.80370
236.94355   392.64516   124.00000  13.70383             11.67065
240.56929   488.95880   267.00000  22.14542             15.48252
242.26389   319.51389   144.00000  15.29637             12.00062
260.42138   302.47170   159.00000  16.13436             12.56724
271.60289   1081.91697  277.00000  23.92322             14.89915
270.72000   76.64000    150.00000  14.83490             13.44065
276.27213   523.59016   305.00000  24.24778             16.16683
286.03571   921.41071   224.00000  30.96117             10.16861
286.54065   329.12195   246.00000  19.71248             15.96947
287.83333   881.37281   228.00000  20.38652             14.63121
291.53636   1818.36818  220.00000  18.47224             15.29363
300.85222   308.44335   203.00000  18.09750             14.34346
308.08814   532.58983   295.00000  25.93229             14.64084
318.86364   1024.17133  286.00000  20.52270             17.91928
354.46358   951.90728   302.00000  24.22743             16.03551
356.07510   355.35968   253.00000  27.50859             12.04514
353.15833   882.71667   120.00000  13.16833             11.62653
361.93701   70.93701    127.00000  13.56376             12.10289
365.06612   874.58678   121.00000  15.86260             9.82436
370.34202   574.75570   307.00000  28.81389             13.67760
375.04681   914.98298   235.00000  28.16205             10.77031
390.32653   843.49271   343.00000  26.06121             17.25555
400.43939   390.56061   198.00000  18.00427             14.08816
403.74074   641.07407   216.00000  19.32869             14.53660
405.30189   799.49057   265.00000  20.62653             16.48602
408.05294   242.75294   170.00000  16.60024             13.07441
414.39583   706.65278   288.00000  22.39477             16.47673
419.15953   913.50584   257.00000  21.77710             15.21660
426.86080   893.46875   352.00000  34.43940             13.53489
423.79208   745.22772   101.00000  17.09443             7.61198
444.49084   421.81319   273.00000  22.42642             15.78280
483.69796   924.58367   245.00000  24.15130             13.29755
497.02290   903.38550   262.00000  19.69413             17.42639
505.42500   140.77500   120.00000  13.59502             11.61646
508.83673   314.44898   98.00000   13.58326             9.38552
531.01099   934.86813   273.00000  26.52780             13.15987
531.91071   734.39286   56.00000   9.01344              7.88422
541.18217   924.08527   258.00000  29.02525             11.61611
547.58772   1087.24561  228.00000  22.38982             13.04757
557.67391   940.69565   138.00000  15.50645             11.37331
566.38376   358.51661   271.00000  25.37637             13.68208
571.86829   388.48780   205.00000  23.28877             11.43580
568.36686   1060.67456  169.00000  16.61825             13.00832
567.56757   1128.54054  148.00000  15.53730             12.12574
575.94762   1083.13810  210.00000  19.03103             14.20879
576.39884   938.46243   173.00000  18.16574             12.48138
572.27586   698.31034   29.00000   7.41883              4.94057
580.89222   951.91018   167.00000  17.13587             12.44626
580.39407   427.32627   236.00000  21.72193             13.99408
580.27907   1068.33721  172.00000  16.65675             13.19791
584.76849   1136.15756  311.00000  25.66911             16.00512
586.58246   281.59649   285.00000  26.67164             13.64517
590.44767   495.56977   172.00000  18.50024             11.90431
594.40602   900.95113   266.00000  26.74496             13.08105
594.61272   456.53757   173.00000  20.35906             10.84786
592.19643   1101.62500  56.00000   9.19053              7.89817
596.77500   250.12917   240.00000  23.05504             13.66705
596.28000   1182.38000  50.00000   10.09382             6.48614
603.31319   1176.23626  182.00000  18.22312             13.15522
597.42105   1035.10526  19.00000   5.54470              4.29570
607.00613   439.44785   163.00000  20.85703             10.06275
610.63720   572.84756   328.00000  29.31076             14.66410
611.09559   354.53309   272.00000  23.40073             14.97865
617.26071   1255.80357  280.00000  28.29764             13.61287
617.73050   1175.95035  141.00000  14.82177             12.27781
625.72947   127.82609   207.00000  19.30474             13.65166
628.36744   709.79070   215.00000  18.73968             14.82332
631.85547   842.47656   256.00000  24.93346             15.87583
629.48826   1216.89202  213.00000  17.31353             16.03096
628.62376   624.58416   101.00000  13.99948             9.29243
636.18824   674.00000   255.00000  21.87475             14.92632
638.17241   939.85057   174.00000  23.72739             9.63918
636.55906   640.86614   254.00000  24.96957             13.01319
639.88205   697.58974   195.00000  21.67434             11.75497
644.98828   752.44531   256.00000  25.48099             12.93181
638.62366   851.60215   93.00000   12.74776             9.49064
644.14815   1332.51852  108.00000  19.38711             7.33876
643.27839   389.05861   273.00000  21.18185             16.56238
642.50336   1651.18792  149.00000  17.00694             11.18233
654.83922   663.10588   255.00000  18.80214             17.59914
653.46914   718.55967   243.00000  28.73145             10.87808
651.26829   1340.26016  123.00000  16.11190             9.89175
655.43750   21.27679    224.00000  20.17989             14.34965
658.14444   939.14444   180.00000  20.97760             11.14677
660.94932   351.56419   296.00000  22.65783             17.16934
661.00870   392.99130   230.00000  21.57612             13.59792
660.22801   817.01303   307.00000  24.66550             15.99440
664.64563   948.80097   206.00000  25.38873             10.39382
664.59032   763.42581   310.00000  22.44583             18.16533
663.11364   1292.30909  220.00000  19.44425             15.36597
667.53363   691.83408   223.00000  26.94753             11.09397
669.84556   1497.75676  259.00000  18.91828             17.94710
668.81765   706.37647   170.00000  17.36672             12.51718
672.93357   1320.25524  286.00000  23.83170             15.81713
673.32258   1299.15484  155.00000  18.22899             11.30018
672.81416   1473.84513  226.00000  19.59087             14.87307
673.32389   1425.28745  247.00000  20.38502             15.49745
678.00749   724.74157   267.00000  22.19435             16.55059
678.67876   675.88083   193.00000  16.17181             15.27276
679.92432   1645.91892  185.00000  19.56335             12.13072
678.80769   1659.63846  130.00000  15.02492             11.07176
679.70455   1286.04545  132.00000  14.50662             11.63619
684.60943   1379.93266  297.00000  22.00973             17.65994
685.28017   661.12069   232.00000  18.57444             16.24121
683.95652   1771.47343  207.00000  19.77315             13.36790
689.91724   180.75172   290.00000  25.75615             14.71080
691.89474   59.26842    190.00000  19.41767             12.66835
688.70769   1669.33846  65.00000   10.91076             7.59564
693.38078   1346.87189  281.00000  24.18905             14.83604
704.97143   404.52143   280.00000  30.81202             11.69001
699.36774   1280.36129  155.00000  17.33923             11.49146
703.49288   781.28775   351.00000  24.57291             18.58001
702.91414   1775.58586  198.00000  16.28323             15.50348
714.80851   1369.52128  188.00000  17.06604             14.09946
716.66197   1673.18310  213.00000  18.29076             14.95107
722.61943   1303.90688  247.00000  20.88268             15.20069
720.43682   1392.06498  277.00000  19.28361             18.57788
721.94097   290.35417   288.00000  19.85305             18.67156
726.39405   1415.72119  269.00000  22.65619             15.35971
722.14706   1658.12353  170.00000  15.69325             13.89380
725.54054   1798.60618  259.00000  26.53291             12.68380
727.66537   99.19844    257.00000  20.96182             15.71393
726.50867   785.60116   173.00000  16.10898             13.71849
727.48256   1287.68023  172.00000  18.15637             12.24776
734.66543   1266.95167  269.00000  23.53371             14.82066
733.33125   1402.29375  160.00000  16.79268             12.17660
734.68085   1866.53901  141.00000  15.10683             11.95033
735.76296   204.57778   135.00000  14.95458             11.54387
738.17051   141.30876   217.00000  18.45802             15.10950
739.00410   159.15164   244.00000  17.97114             17.40401
738.37629   183.63918   194.00000  16.72483             14.79111
745.58214   262.27857   280.00000  21.40074             17.61091
742.71200   838.23200   250.00000  21.84512             14.68477
753.26512   405.93023   215.00000  22.35603             12.24216
748.71084   1866.36145  83.00000   11.72161             9.09891
753.89447   1434.03518  199.00000  18.67493             13.61028
757.97610   1280.71713  251.00000  20.70319             15.72019
756.98305   1947.35593  118.00000  13.74812             11.10238
761.25466   24.68944    161.00000  17.75152             11.82132
769.44569   782.21723   267.00000  21.57399             16.24233
769.14222   1631.39556  225.00000  17.62577             16.26116
769.56647   243.26590   173.00000  16.20622             13.60191
767.59596   887.45455   99.00000   15.58325             8.23714
773.92000   204.91333   300.00000  25.02494             15.51546
776.65865   882.99519   208.00000  18.78854             14.21440
777.18827   88.50926    324.00000  24.37833             17.05164
776.17257   163.00000   226.00000  22.65370             12.79231
775.64844   2008.53125  128.00000  15.10976             10.78549
786.58594   1426.87109  256.00000  21.00605             15.54186
788.27962   1462.13270  211.00000  19.95844             13.52319
787.39695   1678.90840  131.00000  13.65613             12.36283
800.71028   1631.92523  214.00000  17.34933             15.78589
812.53420   436.64821   307.00000  33.75893             11.79425
807.82867   936.51049   286.00000  24.15916             15.10627
807.78346   1291.15354  254.00000  20.15938             16.39761
809.53420   1310.09772  307.00000  25.02907             16.40429
808.69068   276.17797   236.00000  23.04237             13.09527
807.20732   409.73171   246.00000  22.23909             14.15500
824.32830   1644.22642  265.00000  27.37022             12.72858
822.28309   793.29779   272.00000  21.25114             16.50079
822.64607   1502.26404  178.00000  18.08966             12.54491
824.63694   2004.35669  157.00000  15.53135             12.90961
826.65089   1326.13609  169.00000  20.02500             11.13107
833.22488   282.89474   209.00000  17.19641             15.52727
834.05691   1475.71138  246.00000  21.77924             14.52737
837.27848   1986.53797  158.00000  14.99279             13.44574
841.86316   1325.68421  190.00000  21.00531             11.70864
848.46781   308.04721   233.00000  24.10134             12.37887
845.91667   444.09722   288.00000  21.74573             16.91727
849.05042   992.50000   238.00000  25.06379             12.16280
847.59119   1969.63522  159.00000  15.65329             13.03437
858.84362   1052.38683  243.00000  22.96029             13.55186
855.81622   1522.02703  185.00000  16.36415             14.57535
854.88732   1537.95775  142.00000  14.44676             12.55816
858.24615   1554.53333  195.00000  19.18895             13.10498
854.46875   1596.84375  32.00000   6.92027              5.93327
862.16740   1618.85903  227.00000  17.44064             16.79864
862.24324   1576.76126  222.00000  22.15303             12.86369
865.52128   1097.56915  188.00000  16.45655             14.68218
869.85463   812.86344   227.00000  17.89458             16.42585
873.62676   1300.03521  142.00000  17.47479             10.47545
878.06579   1324.08333  228.00000  22.55613             13.28587
885.52045   1482.04833  269.00000  28.42553             15.09490
881.59426   1039.67213  244.00000  21.00826             14.97552
881.04592   1089.45408  196.00000  17.24575             14.61849
884.99190   1501.09717  247.00000  19.44298             16.83995
887.39189   486.55676   370.00000  31.95769             15.21316
888.06101   347.72944   377.00000  26.01301             18.74560
883.95238   1333.41905  105.00000  14.13825             9.66127
889.33735   835.19277   249.00000  19.82567             16.44259
890.83588   1078.17176  262.00000  23.26902             14.60527
888.95044   1147.76385  343.00000  29.34164             15.37830
895.23776   1045.24825  286.00000  21.85773             17.32170
896.27801   1580.89212  241.00000  18.83964             16.60556
898.32781   1192.81788  302.00000  26.13034             15.07559
900.98611   371.94907   216.00000  21.88137             12.61884
903.30584   1259.07216  291.00000  25.83148             14.61229
905.89418   660.92063   189.00000  16.68040             14.81608
906.78626   517.64885   262.00000  27.23383             12.37258
910.85932   1119.76046  263.00000  23.88737             14.26817
903.85185   1342.25926  54.00000   9.54286              7.17685
911.19749   1636.82132  319.00000  23.08675             17.79680
914.20866   1092.53150  254.00000  21.60296             15.28422
914.78648   1203.29181  281.00000  21.82422             16.72436
914.88430   1615.94628  242.00000  18.61420             16.88938
915.60870   688.52174   23.00000   5.65685              5.22319
919.87179   1057.79915  234.00000  20.96550             14.96037
923.66480   1345.21229  179.00000  17.86095             13.00059
925.69643   985.13988   336.00000  21.76937             20.11331
924.05072   860.85870   276.00000  23.25055             15.25747
929.49826   422.62718   287.00000  32.45454             11.60882
927.40773   547.49356   233.00000  23.09621             13.18697
936.68306   1334.55738  366.00000  27.56865             17.14972
943.66013   908.02614   153.00000  16.45824             12.05648
946.02092   1294.82845  239.00000  21.89884             13.90812
950.36268   35.39789    284.00000  24.38413             15.19040
952.90551   903.59843   127.00000  15.32139             10.80156
951.59091   1142.00000  44.00000   8.04668              6.94331
953.46512   1162.11628  215.00000  20.68520             13.41981
959.73664   1176.00000  262.00000  24.31375             13.88856
960.45570   958.91139   237.00000  22.69564             13.48634
958.51449   1256.00000  276.00000  21.59780             16.40505
957.76279   974.18605   215.00000  20.32373             13.57712
964.05476   601.97406   347.00000  31.32726             14.48867
960.52000   1326.41000  100.00000  12.72139             10.02148
965.86885   1138.20492  244.00000  23.56765             13.33351
966.77032   934.68551   283.00000  23.41459             15.60652
968.61686   1222.99234  261.00000  20.75020             16.08403
969.62963   910.21296   216.00000  22.00795             12.69544
969.85281   1094.19913  231.00000  20.60431             14.48827
972.98739   1369.15966  238.00000  21.18503             14.45692
977.71269   69.39179    268.00000  22.84416             14.97392
978.50628   1332.50628  239.00000  19.04313             16.20483
979.03871   1021.10645  310.00000  27.20263             15.71661
979.56184   1077.60424  283.00000  26.57705             14.00244
977.63158   1284.83901  323.00000  31.80544             13.26725
979.72000   1265.23333  150.00000  14.45389             13.54694
986.96484   1110.87109  256.00000  21.76715             15.07583
989.65497   1644.94152  171.00000  17.46996             12.66478
988.46970   631.07576   66.00000   10.00957             8.66579
993.38828   85.51282    273.00000  24.36173             14.33162
992.80000   1681.61290  155.00000  15.39516             12.88172
993.42009   59.32877    219.00000  17.40734             16.06415
993.06341   445.07805   205.00000  21.12889             12.72001
996.55052   924.86760   287.00000  23.58799             15.66848
1000.92051  1152.79231  390.00000  28.27704             17.93514
1001.18868  1312.59434  212.00000  21.49586             12.76526
1002.03586  669.00000   251.00000  21.02586             15.61579
1006.56090  1116.22436  312.00000  26.08257             15.97639
1000.97351  1284.41722  151.00000  14.98744             13.19333
1003.94017  1633.06838  234.00000  19.26081             15.63801
1009.36576  1324.06226  257.00000  23.63949             14.08476
1009.54870  700.05844   308.00000  30.66309             13.05710
1004.95455  2.89394     66.00000   11.11378             7.84111
1014.53257  1206.50192  261.00000  20.94569             16.02980
1017.08765  1229.36255  251.00000  24.22976             13.39379
1022.63670  1415.88015  267.00000  28.64576             12.37734
1026.53846  1221.26036  169.00000  17.35915             12.72239
1033.72039  470.24342   304.00000  28.01929             14.45626
1031.91713  1390.03315  181.00000  19.77130             11.68822
1034.30796  1334.40484  289.00000  20.88736             17.66883
1035.33641  1509.42857  217.00000  20.07754             14.12110
1033.94545  8.80000     110.00000  12.98263             10.81749
1036.49268  1709.72195  205.00000  19.68734             13.48061
1039.27465  740.37676   284.00000  21.58326             16.95504
1038.41463  1381.25366  205.00000  23.09227             11.35593
1035.85561  1209.48663  187.00000  18.42346             13.07748
1036.28947  1416.31579  152.00000  17.44599             11.21399
1036.34742  1288.40845  213.00000  22.35436             12.29762
1042.58378  1497.59459  185.00000  19.80783             12.07184
1047.40541  757.56757   222.00000  21.57032             13.45599
1058.05797  897.86232   276.00000  22.19314             16.75329
1054.31364  1277.73636  220.00000  23.63341             12.49922
1056.67836  1498.69006  171.00000  17.12506             12.96901
1064.18403  1625.62153  288.00000  27.34394             13.47952
1064.84711  1161.95041  242.00000  21.07329             14.80670
1066.55629  1363.87417  302.00000  25.19153             15.46015
1069.77474  1243.32765  293.00000  25.30447             14.90061
1065.44286  1274.93333  210.00000  19.57914             13.94822
1067.76433  1298.99363  314.00000  25.47558             16.10130
1067.97525  125.59406   202.00000  16.93872             15.27885
1076.38855  480.17169   332.00000  26.20003             16.19821
1075.73913  1504.96377  276.00000  23.39400             15.35717
1074.89831  1448.77119  236.00000  22.51373             13.44644
1072.64103  141.37179   156.00000  15.10821             13.21544
1078.09057  1266.29057  265.00000  20.14647             16.93149
1081.07302  790.54286   315.00000  25.67448             15.91071
1079.69780  1193.20330  182.00000  18.12364             12.84755
1084.24204  1361.69427  157.00000  17.86860             11.27367
1088.84068  1400.13898  295.00000  29.52901             14.78066
1093.24400  1349.39600  250.00000  30.33094             10.77906
1083.60606  1316.81818  33.00000   6.95950              6.10579
1093.39464  879.73946   261.00000  24.36254             14.17703
1094.76453  167.34012   344.00000  22.82901             19.48657
1099.78662  1444.99682  314.00000  27.53176             14.59429
1097.80100  1704.73632  201.00000  17.59930             14.66580
1099.95305  72.48357    213.00000  18.54185             14.79470
1103.10000  1512.28846  260.00000  19.83601             16.73121
1103.73810  1108.13889  252.00000  18.69692             17.48114
1104.00505  1309.63131  198.00000  18.78043             13.52697
1102.15672  1366.65672  134.00000  14.76412             12.16965
1109.90449  1128.16573  356.00000  28.97808             16.59295
1107.80851  95.23404    235.00000  19.41094             15.61338
1107.55814  828.91163   215.00000  18.59316             14.82907
1105.18478  1095.40217  92.00000   11.78911             10.15383
1107.67029  1280.10870  276.00000  24.99476             14.26256
1107.61268  1418.78169  142.00000  15.58887             11.59499
1109.17259  117.89848   197.00000  19.55630             12.93231
1108.45455  1374.94545  110.00000  12.25749             11.45429
1113.52247  1321.00562  178.00000  15.83741             14.46885
1120.77734  481.39844   256.00000  23.45384             13.93813
1119.85514  1233.94860  214.00000  23.14406             12.43047
1118.70988  1272.85802  162.00000  16.23759             12.82570
1122.66667  1217.23569  297.00000  25.04140             15.45796
1119.31361  1138.77515  169.00000  16.33855             13.24219
1122.12658  1390.45992  237.00000  18.40577             16.91280
1124.30180  1116.31982  222.00000  19.30850             14.87055
1127.90459  1352.64311  283.00000  27.63842             13.84458
1126.00000  1539.30258  271.00000  20.36255             16.99547
1125.26190  1175.48810  168.00000  17.26082             12.45229
1131.20436  866.80654   367.00000  25.62706             18.49347
1127.54595  1077.21622  185.00000  19.40295             12.16898
1132.06356  162.73729   236.00000  19.70085             15.49836
1132.47737  1307.52263  243.00000  20.42415             15.49799
1137.70777  1207.83378  373.00000  27.24734             17.94269
1137.75355  1446.38389  211.00000  19.62390             14.61445
1137.14286  1467.32468  154.00000  18.70822             10.61191
1135.80556  1048.66667  36.00000   7.62575              5.99246
1145.53279  1254.94262  244.00000  24.14901             13.16857
1142.34810  1233.60127  158.00000  16.76592             12.15891
1145.16667  1424.40278  144.00000  15.63725             11.88802
1147.73214  1549.68452  168.00000  15.57217             13.74965
1152.26897  857.45172   290.00000  22.83260             17.24754
1151.96694  1616.09091  242.00000  22.66182             13.71292
1153.14634  1465.40000  205.00000  21.01936             12.59369
1152.67066  1047.43114  167.00000  19.27493             11.05707
1151.60556  1668.25000  180.00000  16.98686             13.55980
1153.55652  1371.46522  230.00000  18.52813             15.90662
1152.78065  1396.63871  155.00000  14.73686             13.45742
1153.42857  1448.34694  196.00000  17.74551             14.09254
1156.27879  870.36970   165.00000  18.06367             11.63775
1157.07299  217.97810   274.00000  23.96738             14.75286
1153.25000  1054.93750  32.00000   8.42623              4.89246
1156.03162  1527.75099  253.00000  21.66720             15.00800
1162.77876  1308.51327  339.00000  26.02922             17.21649
1162.88258  1566.48864  264.00000  23.59397             14.41418
1163.70588  1703.29947  187.00000  19.52996             12.34172
1164.49664  1269.03356  149.00000  15.96690             11.93240
1160.60000  1054.17500  40.00000   7.97124              6.40385
1169.58099  1123.02113  284.00000  25.28954             14.79399
1167.05063  1378.48734  158.00000  17.21015             11.85653
1168.35581  1427.74906  267.00000  25.56815             13.67414
1169.47619  1288.70068  147.00000  15.17056             12.41036
1169.83945  318.14679   218.00000  18.95976             14.90489
1175.90634  482.62538   331.00000  24.94682             18.01363
1172.10331  887.52066   242.00000  19.37441             16.14270
1171.81143  1053.18286  175.00000  18.77923             12.10889
1176.52492  1340.63455  301.00000  28.81155             14.72766
1170.86555  259.96639   238.00000  25.33064             12.15865
1171.82759  1665.40517  116.00000  13.38492             11.05239
1178.38132  1482.40078  257.00000  22.98240             14.47668
1178.38571  1240.10952  210.00000  20.52026             13.28816
1172.30612  1675.67347  49.00000   10.47018             5.97841
1178.64455  1509.03318  211.00000  17.48741             15.43123
1179.79878  1716.70122  164.00000  21.72848             10.99631
1183.97531  332.05761   243.00000  20.99411             14.84984
1186.26446  1412.69008  242.00000  19.57583             16.26786
1179.71429  1682.47619  63.00000   10.17047             7.92477
1182.96250  374.12500   160.00000  16.51897             12.48404
1186.13147  1378.44223  251.00000  27.20191             11.86027
1185.28440  1531.05046  218.00000  17.74974             15.79271
1189.95122  1597.63902  205.00000  25.05670             10.57424
1185.70270  1053.37838  37.00000   8.29994              5.62337
1193.41905  892.03175   315.00000  21.98406             18.79604
1196.43891  1567.09050  221.00000  18.75316             15.37000
1196.33984  386.22266   256.00000  21.23603             15.59294
1198.95238  1397.28042  189.00000  18.46101             13.16369
1202.94118  1481.69896  289.00000  33.35070             11.49443
1199.65116  1331.17054  129.00000  15.17124             10.87680
1200.60265  1421.50993  151.00000  15.04207             12.96569
1208.53532  1053.11152  269.00000  21.60027             16.04332
1209.03629  1249.94355  248.00000  21.09981             15.45703
1210.42857  1357.15714  210.00000  22.20295             12.25444
1214.90508  1195.26441  295.00000  26.65727             14.47072
1218.61714  1461.25714  350.00000  32.53679             13.98734
1211.40678  1291.20904  177.00000  17.05057             13.52584
1217.60563  1333.41901  284.00000  27.89484             13.57151
1213.05618  1624.31461  267.00000  21.85342             16.08637
1214.15827  1593.19424  139.00000  14.63888             12.32915
1217.76898  1577.44884  303.00000  23.69508             16.55505
1217.97122  325.89209   139.00000  16.14013             11.07795
1222.88824  1306.71765  170.00000  18.04679             12.11282
1222.81416  1517.23009  226.00000  19.79656             15.57076
1224.89623  1064.65094  212.00000  18.51857             14.68144
1222.27273  1638.80114  176.00000  16.59394             13.58476
1223.99254  1317.25373  134.00000  16.36612             10.64557
1227.22059  476.48529   204.00000  16.43667             15.97900
1226.43902  1288.43902  164.00000  15.32438             13.69246
1229.41304  14.94022    184.00000  17.44343             13.88715
1230.80791  324.70056   177.00000  15.47759             14.64461
1234.01581  1655.45059  253.00000  25.03401             14.01716
1232.26182  1146.69091  275.00000  23.50128             14.98420
1234.99548  1426.65158  221.00000  24.43871             11.94754
1233.65929  1486.84956  226.00000  19.53512             14.78879
1232.78182  1506.65909  220.00000  21.00305             14.23809
1234.95023  302.50226   221.00000  20.06611             14.18206
1236.63968  1399.65587  247.00000  20.28453             15.57062
1240.71956  877.35793   271.00000  21.99119             15.86248
1239.71498  1309.44444  207.00000  20.68985             12.85261
1238.69388  859.06122   196.00000  18.45755             13.59338
1241.78277  1161.30337  267.00000  22.84440             15.22697
1243.78491  269.64528   265.00000  27.26676             12.92198
1244.99590  478.98361   244.00000  21.65913             14.42421
1251.59791  1369.34204  383.00000  32.72546             16.85232
1240.66667  1614.97980  99.00000   12.83841             9.83177
1247.37705  1285.24044  183.00000  16.09886             14.58230
1252.08696  1575.17826  230.00000  20.14707             15.05717
1249.51773  1686.51773  141.00000  16.33787             11.00935
1254.55469  33.18359    256.00000  20.83253             15.89358
1254.32792  1128.90584  308.00000  20.47521             19.67514
1251.24339  1302.93122  189.00000  20.14895             12.20381
1251.57237  1325.50000  152.00000  16.95632             11.46984
1254.68325  1345.73822  382.00000  27.33979             17.99220
1250.87179  1434.73718  156.00000  17.72713             11.25787
1255.88571  320.76000   175.00000  18.84673             11.87609
1258.96000  1411.76000  200.00000  17.30404             14.90044
1260.97071  1266.43933  239.00000  20.78847             15.18041
1257.40000  1620.48966  145.00000  15.45864             11.98331
1262.21101  1459.94495  109.00000  13.67704             10.43255
1266.19573  1550.85765  281.00000  26.71021             13.70526
1266.89243  1106.91235  251.00000  21.14346             15.27258
1267.63699  1309.07534  292.00000  24.55074             15.70948
1266.95439  1428.34386  285.00000  20.09021             18.52875
1270.75688  1196.78440  218.00000  21.65050             13.70286
1274.08741  470.86364   286.00000  24.39440             15.12155
1271.82576  1470.12879  264.00000  21.40843             15.86937
1274.90336  236.71429   238.00000  19.24688             15.96849
1269.56140  1232.43860  57.00000   9.86063              7.37337
1271.53723  1280.66489  188.00000  19.36270             12.42300
1269.43243  1177.56757  37.00000   7.66429              6.10972
1275.71978  1207.80220  182.00000  19.00843             12.30230
1281.45225  205.47191   356.00000  22.62143             20.35962
1276.62069  1400.68966  58.00000   9.55157              7.74332
1281.85981  1411.13551  214.00000  19.25003             14.19905
1282.01974  1223.67105  152.00000  14.53618             13.61554
1278.35294  1343.31373  51.00000   8.57908              7.55686
1287.57091  1259.83273  275.00000  21.57464             16.65826
1291.61371  62.50779    321.00000  29.77571             16.74149
1285.41667  1457.21795  156.00000  16.34667             12.26701
1286.07782  942.71595   257.00000  22.00299             15.00059
1289.53488  1313.04319  301.00000  28.75183             13.73625
1288.59075  1050.55160  281.00000  26.23089             14.11573
1290.35484  1439.10215  186.00000  17.67407             13.44141
1291.17424  973.20455   264.00000  21.50991             15.66077
1289.49275  995.14976   207.00000  19.63040             14.03543
1287.52941  1466.38235  68.00000   10.02140             8.84080
1291.03941  1136.84729  203.00000  19.69811             13.21294
1289.71591  1517.46023  176.00000  16.93572             13.34340
1291.89222  1476.78443  167.00000  15.76939             13.48770
1293.63429  1095.10857  175.00000  17.65073             12.84268
1292.24852  1156.97633  169.00000  16.41569             13.28839
1291.25510  1220.30612  98.00000   13.55406             9.58059
1293.90071  1372.51773  141.00000  15.66295             11.65881
1295.82424  1231.11515  165.00000  17.37450             12.42342
1296.84971  1608.67052  173.00000  17.64664             12.56569
1297.01796  1331.01198  167.00000  16.09393             13.41179
1298.78070  1508.79825  114.00000  13.68829             10.77275
1298.15741  998.55556   108.00000  16.90892             8.35409
1302.42793  1408.35135  222.00000  21.25254             13.69425
1303.52941  1351.11029  136.00000  15.21235             11.50035
1305.99379  291.49068   161.00000  18.81215             10.95737
1306.68047  1183.74556  169.00000  19.91505             11.05818
1308.21961  1366.59216  255.00000  22.24582             14.82805
1304.72464  1268.55072  138.00000  13.77065             12.88574
1306.41525  1039.87712  236.00000  21.21643             14.24536
1310.72650  1257.82479  234.00000  19.73343             15.52107
1308.32857  168.87619   210.00000  21.18155             12.66257
1308.77251  951.08531   211.00000  19.36520             14.18119
1309.94845  1488.87113  194.00000  17.94494             14.08300
1310.26897  1224.64828  145.00000  16.04233             11.55153
1314.37705  1583.26639  244.00000  26.48646             12.23440
1313.52475  1191.24752  101.00000  13.66638             9.57732
1316.42473  934.38710   186.00000  18.13361             13.17852
1316.80420  1354.61538  143.00000  14.05343             13.08056
1323.13438  1050.35000  320.00000  26.24905             16.23541
1324.23158  1158.43158  285.00000  23.06432             16.02988
1319.68992  1203.87597  129.00000  15.51670             10.86875
1322.34749  1245.05019  259.00000  21.73764             15.22460
1328.49012  1525.11067  253.00000  24.25826             13.81311
1321.86700  1609.89655  203.00000  17.86278             14.54986
1324.39189  152.63964   222.00000  21.30658             13.32947
1326.60870  1272.88768  276.00000  20.14346             17.57784
1326.25150  944.76048   167.00000  17.14783             12.90677
1330.25758  1197.19318  264.00000  21.89632             16.35354
1327.53378  1390.56757  148.00000  16.29656             11.77519
1333.51801  1335.88089  361.00000  27.63906             17.65426
1331.21757  908.48117   239.00000  21.30690             14.47310
1333.98113  1258.11321  212.00000  17.00083             16.24246
1329.31579  1546.02632  38.00000   7.33911              6.59380
1335.60938  465.36328   256.00000  20.42650             16.21010
1331.17073  1131.34146  41.00000   7.83914              6.65684
1336.74026  117.25108   231.00000  22.60997             13.03541
1340.28814  1552.79661  118.00000  17.17051             9.19083
1340.00000  1164.42500  120.00000  13.76289             11.15166
1337.61240  1413.67442  129.00000  16.35421             10.10057
1343.85276  1236.80061  326.00000  22.59811             18.64092
1342.95161  269.20968   186.00000  17.23568             13.76910
1345.22384  1143.90116  344.00000  31.56005             15.46731
1343.44134  1184.17877  179.00000  20.91732             11.09632
1345.75879  1268.82412  199.00000  19.77542             12.90511
1343.24444  1427.15556  45.00000   8.27987              7.04039
1351.25610  890.34146   246.00000  23.12265             13.81371
1350.80952  1278.29524  105.00000  15.48283             8.84051
1351.26941  76.75342    219.00000  19.84317             14.26256
1347.86538  697.51923   52.00000   9.08445              7.33432
1353.35849  1314.08302  265.00000  19.31149             17.94988
1353.04516  1527.25161  155.00000  17.28137             11.70272
1357.90244  467.27100   369.00000  25.37265             18.95756
1352.99213  1059.03150  254.00000  21.24929             15.35236
1353.45320  1606.98522  203.00000  19.82318             13.08886
1358.04332  1379.73646  277.00000  22.71687             16.40819
1359.32824  1481.13740  262.00000  24.09496             14.62413
1354.48108  1507.95676  185.00000  24.43430             9.67636
1355.48387  111.04839   124.00000  14.83542             10.77022
1358.61397  1126.09559  272.00000  20.77206             16.75577
1352.17143  1436.45714  35.00000   7.71260              5.87626
1357.84404  1468.63303  109.00000  13.56753             10.29217
1365.87330  1412.50226  221.00000  24.17811             12.23355
1364.13223  1194.44628  242.00000  24.39764             12.83202
1367.53409  1434.85227  264.00000  21.57181             15.86835
1366.40741  1349.77778  270.00000  20.23424             17.34156
1366.82645  1398.79339  242.00000  20.75182             15.19239
1366.47090  57.06349    189.00000  18.15390             13.33128
1370.21233  1080.78082  292.00000  22.20832             16.92487
1369.99020  1255.36275  204.00000  17.24996             15.08468
1376.68750  1203.84375  352.00000  26.10900             19.22483
1368.50211  1652.14768  237.00000  27.56480             11.12195
1369.44218  1728.55782  147.00000  17.10883             11.05693
1372.77387  1576.10553  199.00000  18.11268             14.11866
1375.56195  236.45133   226.00000  23.87064             12.21943
1376.63971  631.50000   136.00000  17.96902             9.87461
1379.81910  1162.10050  199.00000  22.94101             11.22004
1378.96923  1596.07179  195.00000  18.91503             13.26460
1376.99367  1146.29114  158.00000  18.16188             11.08903
1383.51739  1391.27391  230.00000  18.18128             16.19746
1389.15700  1361.25256  293.00000  28.00825             13.73892
1390.13833  953.13256   347.00000  25.74455             17.41467
1390.65495  1481.60703  313.00000  34.33014             12.36680
1387.29008  1799.54962  131.00000  14.35472             11.88394
1394.30827  1119.13158  266.00000  27.54870             12.44751
1391.71564  1460.22749  211.00000  21.16655             12.73193
1393.76220  1543.57927  164.00000  19.10257             11.11969
1396.05447  1197.55253  257.00000  31.93020             10.31927
1397.12214  1086.39695  262.00000  22.23221             15.20369
1397.08750  1157.87500  400.00000  32.67186             16.90139
1394.69756  1596.03902  205.00000  17.87747             14.67172
1393.84762  1380.83810  105.00000  11.89209             11.31189
1399.25547  1824.01460  274.00000  24.86131             14.44113
1399.25510  1344.41837  196.00000  18.87233             13.52222
1398.65385  629.75000   104.00000  12.50033             10.73714
1400.00000  1773.79592  147.00000  17.50749             10.79076
1401.55319  1535.37234  94.00000   11.60879             10.56259
1408.46909  1141.47273  275.00000  27.14709             13.23457
1407.93889  1456.66667  180.00000  16.26152             14.19674
1407.25157  1559.48428  159.00000  15.25587             13.38648
1409.28042  187.00000   189.00000  22.99984             10.62457
1414.04301  1262.05735  279.00000  24.78596             14.50734
1409.78333  746.40000   60.00000   9.99665              7.65653
1419.39776  957.12605   357.00000  31.07989             14.70360
1413.46571  1041.36286  350.00000  32.06919             14.36032
1411.39130  1114.65217  115.00000  12.56018             11.82829
1414.15185  1180.91481  270.00000  25.60842             13.94028
1417.14778  1536.54187  203.00000  20.42949             12.87959
1422.03158  1378.77895  285.00000  29.77483             12.42134
1419.29555  1669.48583  247.00000  20.13146             16.26638
1419.94186  1451.20930  258.00000  23.28616             14.62953
1421.67623  1519.61066  244.00000  23.86026             13.19570
1421.73361  909.35656   244.00000  18.87317             16.52353
1417.16071  1361.85714  56.00000   9.70800              7.33976
1422.87156  1479.86239  218.00000  20.47760             13.98001
1421.72222  1101.71528  144.00000  15.71711             11.82731
1424.92823  1126.83732  209.00000  17.88290             15.46233
1421.89855  1113.86957  138.00000  15.62530             11.34665
1426.47348  1292.71970  264.00000  20.89013             16.47130
1430.03435  1066.36260  262.00000  20.97671             16.06072
1429.59903  1191.47343  207.00000  18.78513             15.01799
1429.43388  1218.68182  242.00000  21.69251             14.75003
1427.45000  1040.62500  40.00000   8.70407              5.79216
1435.92151  146.29360   344.00000  31.84255             13.96065
1433.06809  1622.68085  235.00000  22.74127             13.30010
1435.87719  1352.01053  285.00000  30.42412             12.32072
1436.70073  1588.12774  274.00000  21.40094             16.63473
1432.22222  1572.72222  36.00000   7.59100              6.24649
1442.78623  1043.93478  276.00000  28.44615             12.77406
1438.64929  1243.02844  211.00000  17.45037             15.44556
1439.42857  1180.24286  210.00000  22.30144             12.48624
1442.30806  1098.33649  211.00000  17.96210             15.02556
1449.88278  1330.45788  273.00000  21.68749             16.18340
1450.30769  1283.21429  182.00000  16.90031             14.27664
1453.90283  876.85830   247.00000  21.23620             14.85752
1455.16484  1437.34615  182.00000  19.56242             12.09910
1451.57576  1297.42424  33.00000   6.68318              6.22799
1458.57209  1401.12093  215.00000  19.89157             13.84193
1464.12987  1543.62987  308.00000  33.32417             12.02051
1459.54237  1216.77119  118.00000  12.67456             12.12006
1464.06222  1285.54222  225.00000  22.13542             13.43607
1463.74249  1426.19313  233.00000  21.40786             14.07501
1470.44651  1176.17674  215.00000  21.88832             12.90691
1472.73494  1123.88353  249.00000  21.02249             15.43242
1471.18137  1338.87745  204.00000  21.18296             12.46509
1471.03448  1682.27586  174.00000  15.60313             14.23917
1474.01435  1087.50718  209.00000  20.84567             13.47261
1473.78804  1210.70652  184.00000  16.25412             14.79315
1475.37714  1147.25714  175.00000  20.12398             11.27781
1481.88511  1193.14894  235.00000  24.79092             12.47268
1478.33129  1371.36196  163.00000  16.88817             12.52501
1482.62921  1079.55618  178.00000  16.29517             14.18154
1485.70000  1005.11212  330.00000  24.88333             17.67527
1482.08019  1431.87736  212.00000  24.49950             11.34521
1483.82249  1266.56805  169.00000  15.53126             13.87776
1486.28986  1361.79710  138.00000  16.41373             11.00755
1485.46809  858.55319   141.00000  16.33803             11.02737
1484.14729  1327.13178  129.00000  13.35974             12.44122
1487.31004  1174.33624  229.00000  19.74597             15.36196
1490.83333  1219.05072  276.00000  22.85765             15.80127
1493.80952  1153.70408  294.00000  21.46613             17.82986
1489.31959  1313.98969  194.00000  20.16137             12.51666
1489.68224  1243.76636  107.00000  13.38635             10.24553
1488.75714  1253.62857  70.00000   10.58089             8.43679
1494.12977  1285.47328  262.00000  23.60742             14.40303
1492.89908  1130.53670  218.00000  19.63900             14.26088
1493.08173  1453.00962  208.00000  18.55183             14.31883
1492.55556  1111.94444  36.00000   8.82160              5.15025
1498.07955  1395.43182  264.00000  30.37280             12.13744
1508.92430  841.50199   251.00000  20.33425             15.99963
1511.90043  1019.41558  231.00000  32.41681             9.99108
1510.22677  1243.01859  269.00000  19.81693             17.48776
1505.14286  1307.80952  42.00000   7.74655              6.87563
1512.11527  1322.16138  347.00000  25.46609             17.49439
1511.76923  1440.87607  234.00000  21.13484             14.17890
1510.60215  1231.36559  93.00000   14.73420             8.35735
1516.98148  994.26852   324.00000  21.93231             18.95120
1511.97479  1038.27731  238.00000  26.65405             11.93196
1516.73184  680.31285   179.00000  21.59426             11.14151
1516.16176  1366.68627  204.00000  18.86956             13.79347
1516.27723  1138.08416  202.00000  18.84207             13.78152
1515.68571  1343.14286  140.00000  17.41876             10.24527
1522.80909  1261.77273  220.00000  20.12205             14.08361
1521.15217  1664.89674  184.00000  16.63986             14.16241
1522.69192  1191.70202  198.00000  17.66477             14.35503
1527.06699  1076.76555  209.00000  23.79431             11.93601
1525.05000  1114.03000  200.00000  24.82046             10.47142
1531.80658  1172.44444  243.00000  29.89330             10.61785
1532.04528  1444.90566  265.00000  21.85532             15.99421
1530.52023  1143.43353  173.00000  18.67932             11.91492
1530.96916  1336.74449  227.00000  18.40095             16.47778
1531.56566  1304.07407  297.00000  21.69455             17.53701
1532.88265  1366.10714  196.00000  17.43360             14.56275
1539.28114  1290.07829  281.00000  26.07782             14.93549
1534.80365  1610.19635  219.00000  18.70064             14.98713
1530.41463  1622.17073  41.00000   7.76198              6.70987
1538.39844  1644.85547  256.00000  22.35773             14.70782
1540.12444  1042.12000  225.00000  21.46639             13.93877
1535.96117  1183.17476  103.00000  15.02858             8.83713
1539.35193  1205.80258  233.00000  20.79706             14.73898
1544.84080  1263.98010  201.00000  21.41111             12.33602
1543.57143  1351.93714  175.00000  17.09375             13.12888
1544.75758  1137.03030  198.00000  17.64507             14.55395
1548.23721  815.52093   215.00000  20.46097             13.47779
1547.10879  1398.95816  239.00000  22.87094             13.38769
1547.69430  1422.40415  193.00000  17.05647             14.92275
1548.30370  1247.76296  135.00000  15.24039             11.53771
1551.28571  1364.33143  175.00000  18.45768             12.57022
1555.38800  1375.33600  250.00000  23.27617             13.82364
1558.69792  1180.38542  288.00000  26.55667             13.97282
1559.51813  1240.76684  193.00000  19.84020             12.59819
1558.79861  1267.09722  144.00000  16.11733             11.55606
1562.33898  1576.34746  118.00000  13.69846             11.03026
1562.97034  1623.60169  236.00000  21.52497             14.12611
1567.27526  1538.42160  287.00000  22.35144             16.50070
1565.33636  1158.46818  220.00000  19.94563             14.13120
1568.72685  1665.77315  216.00000  20.81299             13.31341
1569.69706  1287.60588  340.00000  25.38794             17.19966
1568.59799  1340.76884  199.00000  16.99386             14.97567
1571.80859  1381.00000  256.00000  23.95712             14.04574
1569.64929  1313.12796  211.00000  18.46104             14.75529
1574.81657  1243.07692  169.00000  17.84594             12.21269
1577.61310  1651.88690  168.00000  16.47763             13.18666
1581.90000  1159.02903  310.00000  20.94350             19.09728
1583.58635  1453.82731  249.00000  26.27049             12.21412
1583.97500  1194.05000  160.00000  15.08035             13.57693
1586.02198  1270.98901  182.00000  21.69892             10.76440
1589.70504  1430.99281  278.00000  25.85323             13.98156
1587.97838  1355.90811  185.00000  20.45087             11.55377
1587.31443  1511.78351  194.00000  17.14097             14.46288
1591.25888  1123.20305  197.00000  21.48831             11.80005
1587.64141  1337.31313  198.00000  18.39587             13.71080
1588.88603  1547.19118  272.00000  21.92092             15.84961
1598.71667  1231.91111  180.00000  18.11033             12.78648
1598.60094  1273.10329  213.00000  19.16526             14.97423
1596.60488  1612.08293  205.00000  18.31052             14.40020
1597.44737  1293.16316  190.00000  19.21520             13.08236
1602.93333  1363.77895  285.00000  23.42753             15.91986
1610.10163  795.78049   246.00000  20.96969             15.08737
1610.30769  1654.62981  208.00000  19.03880             13.96870
1608.48980  1211.08163  147.00000  17.70940             10.61046
1613.69565  1086.70000  230.00000  17.91586             17.24491
1615.90270  1409.00000  185.00000  16.18359             14.72172
1616.95092  1134.14724  163.00000  16.08871             13.24456
1623.35587  1157.10320  281.00000  26.88258             13.93114
1620.19697  1470.47727  264.00000  22.86888             14.85762
1615.44928  1261.13043  69.00000   10.29278             8.50612
1620.80693  1290.53465  202.00000  19.82188             13.57131
1617.76761  1516.24648  142.00000  14.29529             12.64934
1621.43704  1646.17037  135.00000  14.60441             11.99838
1624.36196  1193.68098  163.00000  16.50751             12.62186
1628.81818  1212.09091  165.00000  22.06960             9.69500
1625.83684  1252.54211  190.00000  16.65848             14.52036
1631.70139  1034.51042  288.00000  22.31687             17.43164
1633.21723  1122.40824  267.00000  21.24481             16.45447
1633.15284  1375.07424  229.00000  19.63294             15.23178
1631.67773  1303.84834  211.00000  19.64489             14.58140
1631.70068  1528.10204  147.00000  15.71733             12.09788
1635.30263  1620.46053  304.00000  23.04928             16.84538
1637.67820  1084.69204  289.00000  26.15405             14.28391
1635.30851  1198.86170  94.00000   12.33742             9.75452
1643.60095  1143.96912  421.00000  29.59023             19.46830
1641.07930  1016.77974  227.00000  23.27590             12.87344
1641.94570  1523.87783  221.00000  21.65489             13.17586
1643.50394  1182.86614  127.00000  14.84181             10.90549
1645.43059  1202.01416  353.00000  29.74267             16.69375
1649.00000  1002.71053  228.00000  27.19520             10.83172
1644.33333  1252.19753  81.00000   11.09905             9.31422
1649.41629  1060.18552  221.00000  18.19941             15.51794
1655.06278  951.44395   223.00000  22.96176             12.52865
1654.21531  1332.73684  209.00000  18.23756             14.74800
1654.47399  1128.90751  173.00000  16.68470             13.30366
1655.27919  1805.36548  197.00000  16.83383             14.91837
1656.89840  1271.52406  187.00000  18.02566             13.27023
1657.81553  1106.59223  206.00000  19.32685             14.01685
1661.05660  1695.57358  265.00000  20.63037             16.46818
1665.69036  758.23350   197.00000  19.31334             13.12415
1671.42800  1059.88000  250.00000  30.38342             11.01955
1669.53409  1752.81818  176.00000  17.17770             13.32861
1672.01345  1371.08072  223.00000  20.34183             14.02191
1676.72368  1534.89035  228.00000  20.74634             14.03880
1678.26702  1010.93717  191.00000  24.71351             10.18246
1677.46000  1164.53000  200.00000  18.48583             13.80414
1677.78613  1307.06358  173.00000  16.81168             13.19809
1684.80112  905.76751   357.00000  31.19880             15.03591
1677.63784  1192.44865  185.00000  16.67745             14.48663
1682.47751  1213.70242  289.00000  26.60155             13.99301
1681.17877  1237.33520  179.00000  24.24032             9.55066
1677.63566  1521.60465  129.00000  16.71076             9.83122
1677.23718  891.33333   156.00000  15.35071             12.98266
1678.98601  1564.55944  143.00000  14.41733             12.66447
1682.34375  1141.53750  160.00000  15.12706             13.55577
1683.66837  1413.82653  196.00000  18.28397             13.75093
1687.84733  1020.88550  262.00000  24.43213             13.72743
1685.80882  1061.77206  136.00000  16.00410             10.83485
1686.58602  1099.43011  186.00000  16.48231             14.92229
1692.71046  452.46229   411.00000  25.03117             21.42556
1693.23077  1324.91827  208.00000  25.36077             10.86045
1691.73469  238.61224   245.00000  19.89045             15.72381
1692.78307  711.64021   189.00000  18.68417             12.93343
1691.28777  1199.49640  139.00000  15.94379             11.21580
1692.51546  1286.06701  194.00000  20.98717             11.87561
1694.77253  1430.64807  233.00000  19.31267             15.45549
1696.35124  1113.57438  242.00000  21.74325             14.52197
1694.58594  1505.36328  256.00000  24.01482             13.76123
1693.66154  1302.61538  65.00000   10.08586             8.16269
1698.89474  1335.71053  228.00000  19.83750             15.11272
1698.91855  1448.49321  221.00000  19.85694             14.19077
1697.74731  1901.29032  186.00000  19.28062             12.35302
1699.52555  1130.92701  137.00000  15.54551             11.27334
1702.36313  1542.20112  179.00000  21.47985             11.57312
1701.48101  1650.28692  237.00000  17.95667             17.00132
1703.41200  256.06400   250.00000  18.90032             16.91001
1702.11679  1080.71533  137.00000  14.57040             12.11257
1709.71984  1052.70039  257.00000  26.51072             12.47251
1709.92593  176.87654   243.00000  21.37479             14.55191
1710.43318  1088.83871  217.00000  22.23388             12.52043
1715.03814  1188.79661  236.00000  20.80713             14.85541
1717.07143  1020.12857  140.00000  21.52839             8.77396
1716.64167  1519.57083  240.00000  20.15626             15.20056
1718.95547  631.54251   247.00000  19.61766             16.17446
1719.32044  266.16022   181.00000  16.24215             14.21367
1718.56951  497.02691   223.00000  18.55845             15.39253
1717.79730  1104.55405  148.00000  14.71946             12.95464
1719.82424  1256.05455  165.00000  15.63625             13.48431
1722.90000  669.22174   230.00000  21.16428             13.93012
1719.74468  999.51064   94.00000   12.41598             9.63762
1724.91205  1372.90879  307.00000  28.87927             13.57803
1723.01818  1412.81818  220.00000  24.53008             11.52053
1724.41593  581.83186   113.00000  14.15511             10.18181
1726.57273  599.13182   220.00000  16.99395             16.71166
1729.20192  546.39103   312.00000  23.43604             17.01920
1728.25352  1184.39437  142.00000  14.60713             12.62748
1727.49038  1530.39423  104.00000  12.15345             10.90332
1729.90674  1444.44041  193.00000  17.52421             14.03923
1733.66667  1145.73039  204.00000  21.36407             12.34188
1734.51899  1646.04641  237.00000  21.10181             14.51750
1741.64255  1154.89362  235.00000  23.88710             13.23754
1740.56618  1298.16544  272.00000  23.31338             15.37498
1740.09836  1419.88934  244.00000  18.35869             17.08949
1743.26432  1037.62996  227.00000  23.19794             12.50940
1743.73737  987.75421   297.00000  27.40606             14.48078
1739.85128  1268.58462  195.00000  18.85523             13.42678
1742.55285  1387.12195  123.00000  16.74089             9.42647
1745.20675  1242.18987  237.00000  18.80821             16.14997
1744.17692  1568.27692  130.00000  14.42824             11.59069
1746.33766  1324.35065  231.00000  20.14735             14.62454
1749.25573  1518.21756  262.00000  23.14000             14.69552
1752.83699  1104.20063  319.00000  26.31560             15.94623
1750.50971  1544.09223  206.00000  17.68034             14.88878
1754.76856  1019.66376  229.00000  23.45156             12.45517
1751.02667  1361.03333  150.00000  16.37636             12.00218
1755.42289  1600.51244  201.00000  17.92294             14.45748
1754.71429  1212.84127  126.00000  14.15734             11.59174
1755.34862  1486.12385  218.00000  19.54395             14.49043
1762.53208  1436.05660  265.00000  21.23453             16.04901
1761.68610  1115.33184  223.00000  22.94565             12.91110
1760.92889  1186.17778  225.00000  21.45582             13.78966
1758.28571  507.73469   49.00000   8.58134              7.27378
1761.54348  1371.71014  138.00000  14.87641             11.81434
1764.96476  538.00881   227.00000  19.80259             14.60958
1766.36797  1042.28139  231.00000  19.21583             15.37618
1764.00000  1206.65079  126.00000  13.42635             12.12126
1770.14194  1384.84516  155.00000  16.52364             12.09928
1770.31628  1590.43721  215.00000  16.98765             16.17485
1770.73125  1195.37500  160.00000  15.34989             13.33698
1768.54286  1313.08571  105.00000  15.71875             8.80545
1775.08946  1259.40575  313.00000  23.20150             17.98868
1774.62632  954.12632   190.00000  18.15220             13.48245
1774.90588  288.26471   170.00000  16.82144             12.91101
1773.49296  516.62441   213.00000  17.88005             15.72351
1777.77778  1089.27778  252.00000  19.35781             16.86585
1775.56466  1294.70690  232.00000  19.67674             15.33326
1777.44939  1014.96356  247.00000  20.61687             15.32588
1777.97368  1497.80702  228.00000  18.12022             16.13641
1782.20109  1657.83696  184.00000  18.11337             13.18624
1786.16667  1046.72549  306.00000  24.07743             16.93085
1781.18182  961.98485   66.00000   9.80069              8.67714
1784.86364  1335.91919  198.00000  17.11958             14.82329
1786.56061  1180.62879  264.00000  18.95385             17.91741
1788.72519  551.85878   262.00000  23.38994             14.34876
1788.69027  1236.46460  226.00000  18.18542             16.14813
1792.01212  957.66667   165.00000  15.67023             13.44563
1793.89787  1544.46809  235.00000  18.67749             16.15741
1794.86161  983.31696   224.00000  19.44916             14.72953
1794.14179  1365.28358  134.00000  14.33015             11.91862
1798.90698  1471.28837  215.00000  17.49640             15.72489
1800.46977  1116.65581  215.00000  23.75799             11.62322
1802.11811  942.26378   254.00000  21.79531             15.28026
1805.24201  1307.73059  219.00000  23.20103             12.08030
1805.81696  1693.40179  224.00000  18.35698             15.64708
1811.35685  1136.54357  241.00000  24.67159             12.48203
1810.48804  1062.12919  209.00000  17.65313             15.14719
1812.84656  986.69841   189.00000  16.59402             14.72040
1812.92593  928.03704   54.00000   9.49419              7.20922
1818.49311  1107.09366  363.00000  26.47389             18.15105
1817.72362  1200.53266  199.00000  18.52487             13.99827
1817.94086  1523.89785  186.00000  16.60742             14.66811
1817.24806  547.47287   129.00000  14.89167             11.13838
1818.71204  597.38220   191.00000  17.56516             14.09356
1826.25387  906.21672   323.00000  24.03656             17.41222
1820.45714  1577.27143  70.00000   10.70919             8.51835
1828.76174  1048.24161  298.00000  23.36983             16.27394
1824.91124  1481.60355  169.00000  17.81901             12.30127
1826.00000  1174.80769  182.00000  18.32605             12.79437
1828.97610  996.14343   251.00000  21.57230             15.00128
1834.41639  808.99016   305.00000  22.46980             17.61458
1832.73096  1222.38071  197.00000  19.94791             12.63565
1830.50554  1243.84133  271.00000  23.53563             14.68749
1837.27200  1365.81200  250.00000  23.09775             14.04366
1833.73575  1466.72539  193.00000  17.53617             14.20659
1838.19841  1271.34127  252.00000  22.85502             14.29328
1835.03226  1531.77419  217.00000  18.04653             15.57431
1852.46781  1059.75966  233.00000  21.62820             13.85769
1856.87558  1030.56682  217.00000  34.04804             10.91682
1856.63782  1202.19872  312.00000  26.04395             15.35085
1852.26601  1230.44828  203.00000  19.46110             13.46596
1853.36555  1351.98319  238.00000  22.09879             13.76594
1858.05941  1516.82178  202.00000  19.18200             13.87787
1857.34211  1251.64474  76.00000   10.85422             8.97829
1867.13600  938.77200   250.00000  24.19498             13.30155
1864.62121  1544.78788  198.00000  18.86250             13.41410
1862.92683  54.69919    123.00000  14.87153             10.61384
1865.78676  1606.75000  136.00000  14.03115             12.85619
1875.37500  852.96970   264.00000  22.77428             14.99012
1874.76829  1569.17683  164.00000  16.05301             13.10241
1877.05357  37.12500    168.00000  16.01985             13.71208
1880.77741  636.19269   301.00000  24.80162             15.56716
1880.72807  910.68860   228.00000  21.90087             13.31677
1878.06349  1469.53968  63.00000   10.43669             7.81544
1885.87917  1448.97083  240.00000  21.75596             14.20438
1887.77366  873.64609   243.00000  21.38710             14.58615
1887.16092  347.72031   261.00000  22.42962             14.98546
1886.44800  233.34400   125.00000  15.84064             10.11145
1889.28372  1352.53953  215.00000  18.74888             14.80553
1896.00704  1063.26056  284.00000  24.16122             15.05087
1895.05405  1189.93514  185.00000  17.99485             13.90804
1897.47561  1431.14634  164.00000  18.39975             11.83317
1898.58454  1471.24155  207.00000  18.64484             14.22179
1898.70861  1499.07947  151.00000  15.83524             12.20456
1901.49796  583.15918   245.00000  19.83033             15.75842
1900.20513  1387.45513  156.00000  17.51114             11.45954
1909.22523  1162.15015  333.00000  25.55786             16.76230
1907.32906  905.02137   234.00000  23.24565             12.95828
1904.09630  1412.50370  135.00000  14.40214             12.16857
1911.25301  850.66667   249.00000  23.58188             13.56586
1916.79167  886.60227   264.00000  20.72095             16.58473
1913.18400  1382.16800  125.00000  15.80585             10.10969
1918.39901  536.93103   203.00000  16.93815             15.53933
1922.73298  1365.86911  191.00000  17.53262             14.07120
1925.27488  679.25118   211.00000  19.27930             14.16508
1921.19643  1340.10714  112.00000  12.66749             11.32088
1926.04274  413.65385   234.00000  20.83913             14.42066
1929.57959  1079.95510  245.00000  21.72648             14.53294
1927.52353  1250.42941  170.00000  15.58017             14.14189
1929.05556  503.02020   198.00000  18.18276             13.90001
1931.47104  450.66795   259.00000  21.34219             15.59477
1928.25532  1333.97872  47.00000   8.50406              7.03735
1929.77465  1384.57042  142.00000  16.35520             11.07001
1936.09890  837.10623   273.00000  23.59500             15.08975
1933.50370  1210.77778  135.00000  13.95300             12.45278
1940.93820  1269.64045  178.00000  17.15637             13.54398
1938.90000  244.07500   120.00000  14.62310             10.59158
1946.49425  591.14943   174.00000  16.70944             13.55873
1948.92537  1180.34701  268.00000  19.50063             17.66629
1953.25157  1196.29560  159.00000  17.08931             11.90678
1953.86897  1460.51724  145.00000  14.50758             12.75048
1964.01724  578.35345   232.00000  19.11021             15.49983
1965.93724  600.21339   239.00000  19.28730             15.79667
1966.51282  825.91941   273.00000  18.80096             18.67595
1965.34524  1082.93651  252.00000  18.12736             17.76832
1972.34259  654.99074   216.00000  19.83965             13.89610
1972.80365  562.86301   219.00000  18.04499             15.64329
1988.15068  1111.43379  219.00000  22.53316             12.86127
1990.45783  657.77108   166.00000  15.98702             13.27671
1997.31098  641.95122   164.00000  17.71011             12.37566
1998.79087  1084.15209  263.00000  21.54974             15.61511
2001.08768  1339.40047  422.00000  27.77775             21.89855
2016.34444  1139.15556  270.00000  23.64368             14.97635
2038.13665  1273.44720  161.00000  14.87004             14.25166
2043.98701  1199.66234  77.00000   12.22765             8.16282