# Filename: Nuclei_416_bidi_60x_010.npz
# Voxel size (nm): (108, 108)
# Area quantity: voxels
# Num nuclei detected: 1456
Y           X           AREA       MAJOR_AXIS_LENGTH    MINOR_AXIS_LENGTH
300.70790   553.83505   291.00000  25.35109             15.22804
314.59756   506.64024   164.00000  16.35626             12.82170
328.59804   567.64706   204.00000  19.76472             13.21590
328.96685   1254.64641  181.00000  17.63288             13.11540
330.49754   1352.72906  203.00000  17.12113             15.16470
339.14344   1317.75820  244.00000  18.72788             16.62711
337.46078   1381.94118  102.00000  12.22482             10.68824
343.93469   630.05714   245.00000  20.85193             15.06283
347.32941   651.61176   85.00000   12.72812             8.72387
349.97368   527.36184   152.00000  15.13915             12.79659
372.12766   934.88511   235.00000  19.76177             15.25990
375.17742   563.24194   186.00000  18.62942             12.75320
381.29032   972.37788   217.00000  18.54407             15.02519
382.29344   812.52896   259.00000  21.01139             15.73880
384.41202   632.72961   233.00000  19.94582             14.97335
390.13441   557.15054   186.00000  16.78201             14.14946
393.05978   581.51630   184.00000  17.33673             13.58332
394.46729   900.41121   107.00000  12.40470             11.00207
398.94359   1483.41026  195.00000  17.26415             14.40531
401.60123   970.42331   163.00000  18.11261             11.63322
401.05446   1529.09901  202.00000  19.39648             13.33973
409.90076   788.80153   262.00000  19.20131             17.53303
410.17514   1429.03390  177.00000  17.79410             12.74398
417.51575   930.46850   254.00000  19.56573             16.59419
416.95455   989.87013   154.00000  17.24194             11.49012
414.44828   738.34483   29.00000   7.92033              4.81510
422.37828   896.97753   267.00000  24.93263             13.64529
422.75472   980.57547   212.00000  21.39649             12.78873
428.97087   700.24272   206.00000  21.38278             12.66427
428.66298   597.23204   181.00000  16.41486             14.07343
429.95455   826.26818   220.00000  17.20407             16.38846
431.30992   845.69835   242.00000  21.62376             14.59193
429.57738   541.87500   168.00000  17.07084             12.75231
430.72189   620.97633   169.00000  17.60976             12.33983
432.95038   770.25573   262.00000  20.24980             16.66111
442.24561   1432.15789  171.00000  19.86388             11.49183
437.96552   794.62069   58.00000   9.30189              8.13562
444.01775   580.27811   169.00000  16.23491             13.44334
446.66480   988.72067   179.00000  21.97798             10.44273
449.12664   703.68559   229.00000  17.50222             16.66390
453.02016   794.73790   248.00000  19.72332             16.17090
454.47303   763.98340   241.00000  19.21829             16.10502
456.53403   688.25131   191.00000  18.76010             13.18151
462.80672   956.12605   238.00000  17.92519             17.04923
467.42985   716.05672   335.00000  24.12831             18.79566
469.91111   767.46667   225.00000  20.44816             14.30663
470.16000   627.41500   200.00000  19.55498             13.13764
474.39024   943.25000   164.00000  16.56150             12.73509
477.88321   879.34672   274.00000  19.71374             17.84444
481.27925   1096.46415  265.00000  21.01482             16.30441
481.46154   899.83566   286.00000  22.75061             16.44559
483.75824   962.35165   273.00000  23.15951             15.66049
480.58491   929.47170   53.00000   10.58848             6.32912
483.94410   787.47826   161.00000  14.82333             13.96224
484.52304   813.39295   369.00000  27.91996             17.33246
490.37870   663.75148   169.00000  15.17326             14.22572
493.39700   738.81648   267.00000  21.56144             16.26371
506.83636   1451.99394  165.00000  19.26335             11.41120
508.40201   1007.37186  199.00000  19.11198             13.48978
513.03704   687.50617   81.00000   12.57128             8.23210
519.01230   1440.99180  244.00000  24.05909             12.96057
520.73364   1407.80841  214.00000  22.23446             12.32200
530.21147   1017.14695  279.00000  22.73231             15.78082
527.57669   995.71166   163.00000  16.08530             12.99120
531.25105   691.70293   239.00000  20.03154             15.23481
534.76025   1083.81073  317.00000  24.81990             16.93094
538.07692   1389.57895  247.00000  26.69427             12.21993
532.86087   728.27826   115.00000  12.88915             11.42877
545.30570   986.05181   193.00000  19.65709             12.58828
542.32203   1321.62712  177.00000  18.99889             12.17923
542.58015   748.88550   131.00000  14.28756             11.67415
546.51600   1050.50000  250.00000  20.99586             15.29869
545.35463   1189.25879  313.00000  25.73791             15.82765
547.24000   1457.54000  200.00000  19.81091             13.08513
551.25581   1149.28682  258.00000  21.06752             15.91638
552.35740   859.93141   277.00000  27.24468             13.10821
547.50000   1104.50000  32.00000   6.32456              6.32456
556.61429   1124.35000  280.00000  20.20475             17.83414
557.55118   789.07874   127.00000  15.03207             10.81875
561.01824   1006.85410  329.00000  24.77234             17.03110
558.41463   1176.29268  82.00000   12.85646             8.42499
563.93711   781.77987   159.00000  18.58839             11.12979
562.27848   945.66456   158.00000  15.86614             12.76503
565.47718   1105.32780  241.00000  22.58404             13.64096
569.42273   635.60455   220.00000  19.88082             14.51178
572.47980   888.01010   198.00000  18.37419             13.82565
575.97510   954.20332   241.00000  23.26613             13.40184
572.36842   1122.88995  209.00000  17.36065             15.37578
577.20455   820.77273   220.00000  20.10092             14.38885
580.71739   1088.15217  138.00000  16.14521             11.14605
589.71552   903.78161   348.00000  30.25958             15.62347
586.53043   868.25217   230.00000  20.98322             14.01468
591.06826   1214.04437  293.00000  25.41535             14.76881
593.22989   722.36207   174.00000  16.09487             13.85601
594.14523   1086.44398  241.00000  19.51258             15.81743
591.61404   1142.75439  57.00000   8.88624              8.18654
595.72956   1411.91824  159.00000  17.13390             12.08752
598.26728   810.69585   217.00000  20.69941             13.56428
596.14563   1114.57767  206.00000  18.05397             14.67139
602.57895   1046.38346  266.00000  20.65412             16.84538
610.24812   840.45865   399.00000  27.96397             19.51676
603.40206   1425.30928  97.00000   12.56362             9.80728
605.67568   868.58108   222.00000  21.13483             13.55400
604.64679   968.88532   218.00000  21.07624             13.36462
615.30992   553.48760   242.00000  18.43423             16.85804
613.31667   1433.08333  120.00000  13.43678             11.41362
621.79832   964.98319   238.00000  22.77806             13.47891
619.08418   1180.59933  297.00000  26.75913             14.25976
621.15060   976.58434   166.00000  17.78841             11.94615
619.06019   1051.02778  216.00000  21.82712             12.71434
622.32237   1478.61184  152.00000  17.26120             11.21459
626.46111   1081.55556  180.00000  17.82550             12.94262
629.22581   573.10599   217.00000  21.10546             13.12180
628.06154   746.67692   195.00000  21.16641             11.85797
631.55234   999.93764   449.00000  37.32632             16.14309
633.36593   1120.88013  317.00000  24.79403             16.50524
631.57823   1157.21088  294.00000  23.58698             16.15532
632.39459   826.82703   185.00000  18.47351             13.06191
642.36596   933.07660   235.00000  19.50748             15.97432
641.00455   1085.82727  220.00000  18.28879             15.72800
643.38057   1035.59514  247.00000  24.39759             13.28037
644.17472   1184.49814  269.00000  22.08798             15.51605
646.69355   839.67204   186.00000  20.79371             12.24878
645.08671   1071.41040  173.00000  17.30609             12.79887
648.95055   998.69231   182.00000  17.33042             13.44722
650.02290   1227.30153  262.00000  22.11034             15.16896
653.39901   820.40887   203.00000  19.97080             13.08871
656.56311   1156.08252  206.00000  17.35685             15.20744
659.98431   728.79608   255.00000  25.23059             13.03941
657.01042   802.00000   96.00000   11.73301             10.41640
664.69697   986.35859   198.00000  18.49216             14.05215
664.02222   1015.03556  225.00000  18.03126             16.11628
665.36224   628.92857   196.00000  20.98087             12.32177
667.22778   1461.42778  180.00000  19.24693             12.00083
664.78226   1250.31048  248.00000  24.89432             12.77489
672.60068   878.56997   293.00000  21.49232             18.37522
672.16187   945.79856   278.00000  26.24098             13.93552
675.05882   1119.72353  170.00000  19.18644             11.50406
674.02488   1142.19900  201.00000  17.81659             14.42825
673.84211   1168.54251  247.00000  20.23282             15.71517
674.96970   924.25253   198.00000  18.35092             13.80919
673.70312   771.03125   192.00000  19.56619             12.79928
679.13964   1003.90991  222.00000  21.75192             13.23923
685.67873   1043.70588  221.00000  27.39210             10.49776
679.49265   811.42647   136.00000  13.92496             12.72824
680.30286   901.07429   175.00000  16.92825             13.18240
686.21296   953.00000   216.00000  18.41351             15.13625
682.56923   1057.64615  130.00000  16.73671             10.04387
686.35811   773.95270   148.00000  14.92440             12.70184
689.80335   458.68619   239.00000  18.66339             16.40932
689.02703   991.31892   185.00000  16.51035             14.46475
692.00000   550.10776   232.00000  23.04137             14.83748
688.05344   1021.66412  131.00000  14.65232             11.43221
690.65517   748.70345   145.00000  15.44721             12.00711
690.03125   764.65625   96.00000   12.81063             9.74584
692.24551   841.78443   167.00000  19.84490             10.82325
690.18103   977.12931   116.00000  13.73118             10.84883
691.39759   1071.06024  166.00000  16.55953             12.79361
694.25000   829.87097   124.00000  14.81826             10.72491
701.53875   702.03321   271.00000  22.54671             15.86251
699.74528   986.33962   106.00000  13.86337             9.80271
702.33146   719.51124   178.00000  17.79416             13.14189
702.63265   581.77551   245.00000  26.14128             12.21185
704.77358   742.66038   159.00000  15.61436             13.01248
702.72500   975.43333   120.00000  12.52532             12.35457
705.87624   485.22772   202.00000  17.50453             15.01161
705.60274   796.76712   73.00000   12.03753             7.85352
710.22680   621.01031   194.00000  18.42485             13.97454
712.46429   908.31696   224.00000  19.86207             14.47458
710.36782   727.40230   87.00000   12.20294             9.56470
711.06087   804.13913   115.00000  14.03251             10.89425
712.43220   649.37288   236.00000  22.13576             13.83614
714.61268   1088.73239  142.00000  16.03734             11.35799
718.91626   932.63054   203.00000  19.74399             13.36111
720.32143   1030.97768  224.00000  21.47388             13.37364
728.73103   1053.58276  290.00000  25.59026             14.74785
724.17413   483.31841   201.00000  19.55865             13.27207
725.44361   796.13534   133.00000  15.21767             11.17140
732.17029   839.36232   276.00000  22.57475             16.77443
729.62176   883.48705   193.00000  18.92970             13.00844
732.21231   1016.32615  325.00000  21.14528             19.92675
730.25767   709.82822   163.00000  14.46313             14.41651
734.49686   1091.69811  318.00000  21.71092             19.11521
732.78481   974.75105   237.00000  21.79526             13.90967
736.48770   1116.59426  244.00000  22.89984             13.79630
737.29870   938.25108   231.00000  21.68976             14.30833
738.26471   776.82941   170.00000  15.44148             14.29018
737.56209   1074.83660  153.00000  14.40936             13.58629
738.12302   1183.88889  252.00000  24.32846             13.27143
737.37104   1239.47059  221.00000  20.54855             13.73150
737.95283   952.46226   106.00000  13.47242             10.12104
740.19231   1204.68132  182.00000  16.67329             13.94354
743.76522   912.70435   230.00000  19.54227             15.20046
743.52459   1451.22131  122.00000  15.10927             10.28600
745.31667   720.45000   180.00000  17.78484             12.96532
743.72566   860.92920   113.00000  14.31395             10.13117
744.82270   676.51773   141.00000  15.25692             11.79714
747.66667   581.45355   183.00000  18.66323             12.69794
747.93233   768.28571   133.00000  14.30296             11.90946
749.53299   1272.47208  197.00000  17.25392             14.77748
749.25792   816.47511   221.00000  20.28088             13.88286
752.80124   848.35404   161.00000  16.68844             12.28244
753.39231   1002.36154  130.00000  13.72108             12.16969
755.03704   1071.64815  216.00000  17.87097             15.49062
755.21106   1237.66834  199.00000  18.56497             13.88123
754.84932   615.76712   146.00000  15.78793             11.80796
756.37129   750.07426   202.00000  18.02302             14.33425
756.12651   1251.88554  166.00000  15.88791             13.31093
756.92035   515.40708   113.00000  13.92566             10.33231
755.45402   558.32759   174.00000  17.92394             12.50168
759.68394   928.67358   193.00000  20.21679             12.26981
760.24390   989.95122   246.00000  25.51722             12.70984
756.59748   1295.30189  159.00000  18.11864             11.22179
762.24451   1349.39185  319.00000  21.51678             19.00133
761.04800   764.28000   125.00000  12.96839             12.37811
764.25926   1167.41799  378.00000  25.71839             18.98831
765.46992   719.90977   266.00000  20.69689             16.64235
769.70870   1067.57826  230.00000  19.76501             15.02670
769.00000   510.30952   126.00000  15.67433             10.41465
769.38430   783.61570   242.00000  22.06664             14.33853
771.86220   897.22835   254.00000  21.59855             16.23700
770.36898   1039.05882  187.00000  19.84500             12.35161
771.82828   1243.45455  198.00000  18.34571             13.76355
769.42308   868.48462   130.00000  17.02010             9.88873
775.40769   643.21538   260.00000  23.79967             14.31154
777.20561   833.92056   214.00000  19.99430             14.09090
775.71895   1019.31373  153.00000  14.97370             12.99907
780.00000   535.63780   254.00000  22.73792             14.43332
776.48958   659.84375   192.00000  21.94975             11.26127
778.57653   920.67347   196.00000  21.09536             11.93700
778.92135   248.21348   89.00000   12.58930             9.13116
782.79184   695.80816   245.00000  18.13312             17.42147
781.59387   1097.87356  261.00000  21.02414             15.81389
785.44939   1221.45344  247.00000  22.22924             14.26655
784.08649   862.38919   185.00000  24.91554             9.52392
785.92903   1006.00645  155.00000  15.14494             13.13434
786.62791   1375.08837  215.00000  18.48424             14.92281
789.46320   758.80952   231.00000  18.00657             17.13686
789.93284   1019.44776  134.00000  15.93173             10.77193
791.80000   932.28824   170.00000  19.13946             11.63336
793.86916   835.35514   214.00000  27.93719             9.87526
795.71362   974.68075   213.00000  20.32867             13.88989
796.97742   1166.68065  310.00000  27.07023             14.66755
800.55924   1229.27014  211.00000  23.21963             11.80426
799.01230   731.90164   244.00000  24.20307             13.21034
798.14938   1100.98755  241.00000  25.02081             12.45298
800.11050   659.69061   181.00000  20.38439             11.43748
806.05603   804.18966   232.00000  30.31738             9.95281
807.93151   1137.84932  292.00000  24.76290             15.29093
807.50658   1048.77632  152.00000  17.14334             11.51837
806.00000   677.23239   142.00000  13.92902             13.11884
808.54028   1175.72512  211.00000  19.14929             14.47906
807.34351   764.04580   131.00000  13.68193             12.30952
809.14013   1060.77070  157.00000  16.77759             11.93001
809.46875   546.01562   192.00000  16.74069             14.63944
809.93600   855.24000   250.00000  28.65403             11.41960
810.41358   897.84568   162.00000  16.25667             12.70600
808.95652   728.71739   92.00000   11.67373             10.03378
817.68996   914.72489   229.00000  25.21977             12.96924
810.90909   701.54545   33.00000   7.11980              5.84062
816.09050   752.56109   221.00000  25.73937             11.13836
822.12500   1087.46474  312.00000  28.45215             14.43642
821.61468   1406.16514  327.00000  22.31149             18.82246
818.66667   564.59259   108.00000  12.71100             10.88308
820.91011   839.92135   89.00000   13.02667             8.79026
825.78176   650.56352   307.00000  27.33431             14.52424
829.01389   736.30556   144.00000  14.57091             12.68299
832.90336   802.32353   238.00000  25.68480             12.01594
831.27232   1429.07143  224.00000  17.48153             16.34624
833.91630   767.66960   227.00000  21.36647             13.64281
832.71831   1170.02113  142.00000  17.78925             10.67370
829.26316   1444.47368  114.00000  13.58239             10.74160
830.40541   852.40541   111.00000  14.49638             9.75100
834.63265   1058.23469  196.00000  18.13784             13.92907
833.75684   1126.82675  329.00000  29.17459             14.65098
835.69697   904.73737   198.00000  17.52664             15.08165
837.29787   832.67553   188.00000  18.03479             14.25840
833.27407   1180.42222  135.00000  14.33796             12.27457
838.51667   950.21667   180.00000  19.05666             12.08854
838.89172   1008.63694  157.00000  18.22151             11.13889
841.13714   1442.70857  175.00000  19.20991             11.83770
842.45894   863.04348   207.00000  21.45292             12.43904
851.16596   1116.57021  235.00000  21.53734             14.24699
849.62371   1181.49485  194.00000  18.68745             13.67584
846.75352   577.85211   142.00000  14.01051             13.22463
852.82119   1146.76159  302.00000  28.71520             13.57746
852.06633   704.82143   196.00000  22.98798             10.96714
849.81250   1028.81250  128.00000  14.60448             11.44921
853.09040   899.92655   177.00000  18.20904             12.94793
856.40437   874.69945   183.00000  20.21390             11.61556
853.38312   1215.83766  154.00000  16.08931             12.22198
856.13534   724.64662   133.00000  13.67738             12.45228
860.59504   1227.37603  242.00000  21.30565             14.87222
859.14966   802.94218   294.00000  20.52147             19.18212
858.56897   1014.93103  116.00000  14.32011             10.48593
862.23963   1028.43779  217.00000  22.71492             12.37551
864.29167   976.03241   216.00000  23.86676             11.65395
862.66667   599.52542   177.00000  17.22617             13.42153
863.34167   610.90833   120.00000  15.84459             9.94720
865.97826   1078.96087  230.00000  26.74918             10.99553
864.44444   855.75000   216.00000  21.24731             13.56270
867.07362   905.34356   163.00000  21.47791             9.76975
865.50732   931.70244   205.00000  18.22148             14.57577
866.17722   1487.58861  158.00000  15.49406             13.23076
868.21600   750.54800   250.00000  23.86108             13.56736
870.15528   1097.22981  161.00000  20.28539             10.46935
872.77465   957.78404   213.00000  23.02287             11.93699
871.91776   663.37171   304.00000  25.19582             15.62081
872.56808   777.28638   213.00000  25.78585             10.84652
875.59091   719.44156   154.00000  15.97403             12.31278
883.43114   1519.20359  167.00000  16.54494             12.92975
889.30000   900.73684   190.00000  22.11065             11.29614
891.23558   748.42308   208.00000  18.71602             15.46327
889.72646   1225.84753  223.00000  21.26421             13.39582
894.19355   987.42857   217.00000  19.15225             14.49149
892.56869   1142.77955  313.00000  23.26112             17.69272
894.52551   1051.98980  196.00000  18.28499             13.76531
892.23276   630.43103   116.00000  13.94599             10.62922
895.90625   683.74375   160.00000  17.67548             11.89059
899.07095   837.01014   296.00000  20.41294             19.05291
898.21143   1067.10286  175.00000  19.48410             11.44675
896.26220   1196.24390  164.00000  15.30111             13.82186
896.00000   610.15306   98.00000   14.66051             8.64969
898.84332   767.89401   217.00000  23.50046             11.99400
897.09302   1533.42636  129.00000  14.71212             11.29909
897.56790   1556.37654  162.00000  20.37333             10.23754
901.15789   786.93985   266.00000  29.05483             12.92165
898.99083   1127.45872  109.00000  14.85762             9.49517
898.45139   1267.68056  144.00000  14.51937             12.70020
903.56846   1246.19917  241.00000  21.00361             14.69065
905.18100   957.98190   221.00000  20.90458             13.56228
904.20690   1117.63448  145.00000  14.01066             13.23096
905.56650   1216.67488  203.00000  18.23189             14.22423
905.63248   601.62393   117.00000  13.75163             11.01857
904.26042   1006.66667  96.00000   14.96483             8.50634
906.24571   1508.66286  175.00000  18.38614             12.17067
909.00000   1164.70833  168.00000  16.08363             13.35428
911.38415   1050.60366  164.00000  19.20093             10.97718
909.80000   1148.41250  160.00000  14.87945             13.77096
911.76812   1265.48792  207.00000  20.30409             13.06698
909.67391   1018.81159  138.00000  14.77502             11.94470
913.09607   703.00437   229.00000  24.71592             11.90268
915.51442   792.50000   208.00000  20.04927             14.12664
914.65753   576.46575   146.00000  15.20206             12.26374
917.72024   1386.07143  168.00000  19.58882             10.97145
918.32301   641.78761   226.00000  19.35148             15.04141
916.44724   808.37186   199.00000  17.46148             15.43068
919.78531   901.40113   177.00000  19.64255             11.89073
921.67148   1440.76173  277.00000  20.66783             17.22761
920.74634   1488.08780  205.00000  17.97201             14.63141
919.79851   847.45522   134.00000  14.12566             12.34185
923.17004   1188.79352  247.00000  25.70481             12.68285
922.20430   1159.86022  186.00000  20.14446             12.05430
924.00758   733.57576   264.00000  22.05492             15.94033
925.06787   835.19457   221.00000  19.01140             15.15009
930.78327   1016.38783  263.00000  32.34329             10.98637
928.07362   1147.13497  163.00000  18.46310             11.65294
927.60000   668.33333   105.00000  13.03044             10.63523
933.66509   692.17453   212.00000  24.50594             11.36893
932.19072   1171.00000  194.00000  19.36269             13.27307
932.06494   655.10390   154.00000  18.25851             10.79187
933.34061   991.72926   229.00000  21.19288             14.37697
933.68027   863.77551   147.00000  16.47492             11.44696
933.00980   960.53922   102.00000  15.37261             8.69358
938.76119   912.83085   201.00000  25.44734             10.32690
934.35135   1216.63514  148.00000  17.80077             10.89013
939.71078   1241.12255  204.00000  18.36538             14.60448
942.12459   1381.09836  305.00000  23.21959             16.90673
943.03012   1479.06627  332.00000  22.56934             19.04555
946.54958   1044.90085  353.00000  25.87681             18.27167
942.42553   787.82553   235.00000  20.57373             14.77063
943.04651   970.56977   172.00000  17.19226             12.88363
940.88757   1141.13609  169.00000  16.88884             12.93758
943.18905   1287.87562  201.00000  19.85012             12.98062
944.42373   702.56497   177.00000  19.10959             12.00737
945.56195   1516.32743  226.00000  18.56682             15.58338
945.21875   1172.95312  128.00000  14.98341             10.92916
946.54500   1420.29000  200.00000  22.38615             11.51183
951.72242   1004.23132  281.00000  26.78279             13.64610
945.97458   1067.14407  118.00000  14.46799             10.49113
954.01650   1111.74257  303.00000  29.61448             14.81115
948.29151   1438.73801  271.00000  30.42707             11.76277
949.21277   612.04965   141.00000  13.72794             13.14835
953.85315   867.10140   286.00000  24.69571             14.86597
955.53782   767.12605   238.00000  25.21378             12.13599
955.96947   946.80534   262.00000  20.57286             16.30666
958.28986   1215.89855  276.00000  25.68587             13.76625
960.28638   689.95775   213.00000  24.44741             11.33225
959.29545   799.11688   308.00000  27.72179             14.39396
957.14706   553.83824   136.00000  16.56805             10.49508
959.15183   1380.82199  191.00000  19.46789             13.27674
959.78919   834.76757   185.00000  20.77284             11.83103
961.74468   664.46277   188.00000  24.07791             9.99774
963.76190   1246.92593  189.00000  17.56247             13.87411
963.93333   1079.81905  105.00000  13.56796             9.86003
964.11111   1337.37778  135.00000  13.86462             12.66384
968.29167   1358.92262  168.00000  15.25046             14.47707
969.83012   1302.44788  259.00000  20.76051             16.03813
964.11111   1438.48148  27.00000   6.86762              5.09570
967.20253   1347.48101  79.00000   10.64174             9.49697
972.83150   954.06960   273.00000  19.31640             18.27669
975.62799   559.37884   293.00000  25.31116             15.12163
972.56828   734.73568   227.00000  25.70568             11.49600
972.30719   981.05882   153.00000  14.91073             13.09195
971.23762   1135.10891  202.00000  21.85367             11.98914
972.24194   1067.13710  124.00000  13.21607             12.05237
973.69118   1113.71324  136.00000  18.33185             9.49529
971.11268   1005.43662  71.00000   11.04652             8.45301
978.33761   816.83333   234.00000  17.92447             17.77353
976.05587   1263.61453  179.00000  21.21240             10.82042
975.96396   455.08108   222.00000  18.75799             15.11079
974.87864   801.21359   206.00000  20.20555             13.35451
979.85859   651.59596   198.00000  21.28049             12.11255
976.43750   1012.14844  128.00000  15.90725             10.27957
981.11374   902.27962   211.00000  18.94012             14.37493
977.40336   1246.64706  119.00000  13.33158             11.68748
976.72093   1330.13953  129.00000  14.90136             11.12109
977.87826   860.84348   115.00000  16.36457             9.09599
985.43915   1087.48677  189.00000  25.59496             9.76062
982.12568   847.40984   183.00000  19.34264             12.18857
982.28455   881.69106   123.00000  17.64454             8.96571
986.29536   1028.77215  237.00000  25.36817             12.10509
981.38710   635.83871   93.00000   11.93162             10.01639
983.54412   1109.38235  136.00000  15.20526             11.41028
987.85909   1230.68636  220.00000  22.85090             12.66129
983.89796   1240.08163  98.00000   13.28543             9.58951
984.00870   1256.83478  115.00000  13.32744             11.16643
986.54601   1359.92638  163.00000  18.02958             11.70565
986.63235   962.63235   136.00000  15.26313             11.63690
986.53459   974.30818   159.00000  20.95833             9.85121
987.29630   1324.12698  189.00000  18.94465             12.77848
986.20330   1276.93956  182.00000  18.17143             12.96411
987.56707   1310.84756  164.00000  15.13986             13.92662
988.28226   516.97984   248.00000  28.17961             11.47996
990.80808   573.72222   198.00000  18.88063             13.53487
989.92929   916.62121   198.00000  19.32511             13.21168
989.39103   1186.96795  156.00000  17.79338             11.30053
991.57789   792.80402   199.00000  21.48566             11.98435
991.15966   892.42017   119.00000  14.41547             10.54739
990.84524   1161.19643  168.00000  18.53804             11.62950
993.44444   585.98291   117.00000  13.43487             11.31962
995.40000   1104.57059  170.00000  17.06509             12.76122
1000.96364  1395.93455  275.00000  26.25670             13.47138
991.96774   853.80645   31.00000   7.34307              5.34416
997.31250   675.55000   80.00000   14.76406             7.17077
1004.83333  686.67105   228.00000  29.41925             10.03407
998.15603   925.52482   141.00000  14.83785             12.30144
997.92366   1053.12214  131.00000  16.07096             10.44155
1002.98883  635.65922   179.00000  18.34531             12.81421
1000.25658  654.66447   152.00000  21.38768             9.75094
1003.98889  952.86111   180.00000  16.74341             13.81677
1002.33333  846.66667   75.00000   11.28019             8.50265
1004.32386  1303.96591  176.00000  18.16770             12.44485
1005.21583  1173.74101  139.00000  15.95133             11.57377
1006.44444  839.38889   72.00000   11.43339             8.17364
1011.60000  895.35745   235.00000  24.00125             12.69610
1007.78814  1072.11017  118.00000  15.11280             9.95478
1011.03125  1008.18304  224.00000  21.71715             14.10520
1018.44510  552.93472   337.00000  31.24894             13.94581
1009.97321  715.60714   112.00000  13.32001             10.74161
1013.81851  756.19217   281.00000  19.83987             18.50561
1013.72789  1095.81633  147.00000  22.51261             8.35126
1013.40816  743.26531   98.00000   12.91572             9.82316
1016.60680  1189.81553  206.00000  24.70561             10.65491
1017.40000  699.91250   160.00000  17.80743             11.54180
1018.13913  1044.72174  230.00000  27.34901             10.98835
1014.83333  1064.59649  114.00000  13.02442             11.23041
1019.35968  839.00000   253.00000  19.07226             17.34734
1020.00000  1153.27841  176.00000  16.43461             13.87705
1018.41667  1235.32500  120.00000  15.60356             9.90258
1018.74419  987.51163   86.00000   13.07442             8.44193
1023.04615  792.86154   195.00000  18.68129             13.48587
1023.98507  866.59701   268.00000  20.10841             17.03655
1023.88535  918.11465   157.00000  23.07593             10.13906
1019.98857  926.51429   175.00000  21.49417             10.41569
1021.98883  977.54749   179.00000  17.19394             13.32011
1018.44595  1261.82432  74.00000   10.47151             9.11022
1024.39091  1322.11364  220.00000  20.16263             14.16970
1028.07339  639.72018   218.00000  19.52706             14.35452
1025.01010  817.68687   99.00000   11.84335             10.66965
1027.51266  998.65823   158.00000  19.16484             10.83837
1029.20611  1358.41985  262.00000  23.61243             14.23223
1027.78857  1268.34857  175.00000  18.89267             11.93108
1031.82873  1048.43094  181.00000  20.95149             11.58503
1032.01653  593.24793   242.00000  26.10645             11.94108
1032.62179  888.80128   156.00000  15.60115             12.85188
1031.65969  1251.17277  191.00000  20.13437             12.10356
1034.74510  1101.71895  153.00000  17.13759             11.58542
1037.01463  773.19512   205.00000  19.07575             13.75715
1037.83429  842.62286   175.00000  16.14893             14.08848
1040.65027  1130.40984  183.00000  21.74081             11.00739
1040.50242  543.03382   207.00000  19.84322             13.75656
1040.76552  728.00690   145.00000  18.13815             10.27901
1040.01667  833.51667   60.00000   11.82280             6.84683
1040.15476  922.01190   168.00000  19.50132             11.42589
1042.59281  935.47904   167.00000  16.78639             12.80299
1042.04000  758.68800   125.00000  14.43722             11.09232
1047.43802  1101.40496  121.00000  13.57060             11.41971
1047.80838  1256.17964  167.00000  16.01182             13.36553
1049.16463  917.90244   164.00000  18.46539             11.57813
1050.69547  1043.88066  243.00000  18.59912             16.84446
1051.53488  1370.07907  215.00000  23.67578             11.82462
1053.55233  744.62791   172.00000  21.97457             10.51128
1050.77473  1415.01099  182.00000  18.44904             12.64239
1050.75962  1317.12500  104.00000  11.99532             11.03209
1052.59361  1163.67580  219.00000  22.08530             12.92506
1054.94152  1277.18713  171.00000  16.14581             13.64318
1056.30660  706.01415   212.00000  18.53532             14.68122
1055.84663  994.26380   163.00000  15.56891             13.61869
1056.82222  835.41778   225.00000  20.23883             14.58516
1056.93913  652.25217   115.00000  13.89983             10.94872
1057.79870  733.22727   154.00000  14.91545             13.27638
1058.11043  1385.31902  163.00000  15.86340             13.22487
1059.16129  660.85484   62.00000   10.51608             7.69671
1059.57042  678.06338   142.00000  17.79587             10.32746
1061.85512  518.62191   283.00000  29.38236             13.07024
1059.13043  982.86957   69.00000   10.76352             8.22910
1062.84314  534.82353   102.00000  14.29661             9.23172
1062.17085  854.31658   199.00000  19.45788             13.09968
1066.27941  942.60294   204.00000  19.94055             13.05249
1063.61789  1085.73171  123.00000  14.63851             10.75893
1066.09028  1230.36458  288.00000  26.44698             14.32636
1065.13198  1174.76142  197.00000  17.29743             14.94067
1066.89062  1270.37500  192.00000  17.80670             14.13259
1066.94167  1414.27917  240.00000  22.64163             13.64266
1067.06341  1021.19024  205.00000  17.26385             15.49222
1067.91713  903.06077   181.00000  16.41171             14.51425
1069.72637  1123.86567  201.00000  18.54634             14.05672
1071.91667  842.78968   252.00000  21.13171             15.25228
1080.35484  746.34194   310.00000  31.33014             13.92822
1073.65116  891.19767   172.00000  16.48313             13.46017
1073.90865  647.88462   208.00000  18.36161             14.44769
1074.47059  1064.46405  153.00000  15.63980             12.52929
1075.90854  1372.74390  164.00000  18.45449             11.39125
1072.48611  589.68056   72.00000   11.36157             8.20237
1076.84980  928.24901   253.00000  33.52711             9.87925
1076.14184  978.43262   141.00000  14.29557             12.67968
1075.72727  715.55303   132.00000  14.54040             11.57096
1075.16471  1034.40000  85.00000   10.99436             9.85486
1077.73558  1440.91346  208.00000  17.48519             15.32817
1081.34400  828.86000   250.00000  21.41241             14.98071
1082.80515  561.09191   272.00000  24.60525             14.61519
1080.07619  594.68571   105.00000  12.00552             11.22005
1088.04659  800.57348   279.00000  21.36377             17.62693
1083.87678  1333.74882  211.00000  18.38309             15.06743
1082.17391  1168.66667  69.00000   11.55890             7.66034
1085.08974  1019.24359  156.00000  15.59309             13.07505
1087.36667  759.38000   150.00000  17.86862             10.74729
1088.87500  772.11500   200.00000  17.52890             14.77688
1087.13717  1259.66372  226.00000  26.77380             11.44398
1087.38312  1455.21429  154.00000  16.24369             12.26841
1090.31330  896.32618   233.00000  18.76808             15.91789
1089.59355  1308.60000  155.00000  16.78871             11.80516
1091.66514  440.32110   218.00000  18.95844             14.70679
1089.86932  843.38068   176.00000  17.30925             13.06548
1097.01439  643.00000   278.00000  31.41317             12.23866
1090.84127  700.94444   126.00000  15.54253             10.38357
1093.82353  669.29412   119.00000  13.23234             11.55902
1096.08800  942.35600   250.00000  21.34441             15.43581
1094.02113  981.30282   142.00000  16.84056             10.79345
1092.12371  1109.32990  97.00000   12.02204             10.38435
1099.26695  631.01271   236.00000  22.81623             13.30881
1094.30508  927.13559   118.00000  14.44033             10.71662
1095.09756  1048.73171  123.00000  13.22673             11.88605
1095.74312  867.66972   109.00000  13.35837             10.83151
1097.74790  1005.04202  119.00000  14.37347             10.59357
1102.13131  1028.28283  198.00000  20.23879             12.84513
1095.68421  1083.09211  76.00000   11.13539             8.79941
1101.41899  703.27374   179.00000  17.37584             13.41535
1101.93333  1259.11667  120.00000  15.36259             10.19650
1104.06806  508.89005   191.00000  18.61589             13.23757
1098.74242  841.62121   66.00000   16.85853             5.06409
1102.66467  1219.04790  167.00000  14.97975             14.32133
1102.95935  861.38211   123.00000  15.88751             10.13351
1104.85427  901.06030   199.00000  17.84991             14.40609
1104.29630  1088.54938  162.00000  14.84942             14.16400
1106.48026  980.93421   152.00000  23.31072             8.39224
1109.85507  1329.55072  207.00000  21.73926             12.27910
1105.03871  1445.23871  155.00000  15.20759             13.07250
1106.72593  547.30370   135.00000  14.52010             12.05667
1104.60396  1269.96040  101.00000  12.49871             10.52955
1109.74419  1139.94419  215.00000  18.34600             15.29499
1107.92517  1192.53741  147.00000  13.85907             13.57887
1108.67097  603.70323   155.00000  16.45752             12.02453
1111.04508  1161.52049  244.00000  20.88871             15.14356
1111.08989  686.38764   178.00000  17.85979             12.81940
1110.06429  930.42857   140.00000  17.32028             10.34147
1113.27673  871.81761   159.00000  17.63359             11.55804
1113.63021  734.32812   192.00000  20.41604             12.17680
1112.98592  816.82394   142.00000  14.73133             12.34521
1114.60000  753.64242   165.00000  16.58440             12.71459
1117.56371  849.48649   259.00000  24.48346             14.14972
1120.56489  1435.62595  262.00000  24.70112             13.70709
1116.82911  1259.75949  158.00000  15.42524             13.04950
1118.17273  1374.40000  220.00000  19.30046             14.57833
1116.62745  1180.30719  153.00000  14.92710             13.16612
1117.99383  497.99383   162.00000  15.83381             13.03955
1121.01916  559.26820   261.00000  20.33619             17.61561
1120.35122  656.90244   205.00000  17.14796             15.38632
1120.87444  717.16143   223.00000  20.32371             14.18328
1120.29032  1337.58602  186.00000  19.03613             12.52214
1120.17969  1048.32812  128.00000  13.93899             11.83598
1125.82213  1271.77866  253.00000  23.03186             14.84060
1122.85000  1033.96667  120.00000  13.82942             11.09216
1123.56154  1222.04615  130.00000  13.50552             12.33251
1123.24000  798.82000   100.00000  12.74583             10.06895
1126.16981  734.96855   159.00000  17.74908             11.46677
1127.52198  823.49451   182.00000  15.82625             14.72923
1129.01005  620.93970   199.00000  18.86686             13.47999
1127.50920  906.73006   163.00000  17.28371             12.06762
1128.76351  767.15541   148.00000  15.76072             12.02001
1128.37755  1109.53061  98.00000   12.38621             10.10760
1131.00585  1168.08772  171.00000  17.87925             12.31261
1129.98592  1386.03521  142.00000  16.23441             11.20229
1133.12739  979.01274   157.00000  17.34292             11.65120
1136.66258  691.70245   326.00000  25.79141             16.33639
1132.21875  888.42188   128.00000  13.57470             12.13937
1133.72678  1122.73770  183.00000  16.48324             14.17521
1134.23214  1182.13839  224.00000  18.31876             15.74022
1136.89734  1369.26996  263.00000  19.89136             17.06048
1134.79141  1075.95092  163.00000  16.19176             12.99977
1134.77711  1156.28916  166.00000  16.35746             12.96100
1129.88235  1251.70588  17.00000   5.13351              4.26136
1137.52632  73.60526    152.00000  17.19999             11.30316
1138.09497  542.51397   179.00000  18.47065             12.56871
1140.39779  606.38122   181.00000  17.93662             13.16473
1141.26415  846.76887   212.00000  21.70054             12.93023
1139.83333  1411.57576  132.00000  14.43352             11.81618
1145.27136  880.70854   199.00000  18.54830             13.93005
1142.46429  1015.47143  140.00000  15.74595             11.43566
1143.26901  1132.23392  171.00000  17.55547             12.45695
1146.39194  1263.15385  273.00000  24.50427             14.51187
1145.38043  793.37500   184.00000  16.10096             14.61156
1144.51765  986.08235   85.00000   13.05454             8.48290
1143.06731  995.41346   104.00000  13.24933             10.03616
1143.57143  1327.12605  119.00000  12.84339             11.85580
1147.37321  627.55502   209.00000  19.57640             13.86881
1148.67401  717.22907   227.00000  21.05221             13.93788
1145.91489  959.41489   188.00000  18.60453             13.08326
1145.72789  1169.34694  147.00000  15.02496             12.65062
1146.06429  1436.59286  140.00000  15.05364             11.96834
1150.36598  1302.08763  194.00000  17.50483             14.39701
1148.78689  748.59016   122.00000  13.08562             11.97983
1155.12030  1098.31955  266.00000  22.70816             15.38895
1154.13665  1364.97516  161.00000  17.41529             11.80806
1152.21311  1043.58197  122.00000  13.60330             11.52694
1155.11321  1330.34591  159.00000  16.56706             12.38549
1152.21839  843.83908   87.00000   12.58163             8.87051
1156.34579  928.80841   214.00000  19.28473             14.21697
1157.11111  801.18519   135.00000  14.64751             11.84313
1156.36601  863.49673   153.00000  15.40386             12.73468
1158.36232  739.27536   207.00000  20.85820             12.65059
1164.23827  503.61733   277.00000  28.16643             12.73757
1156.71429  1054.08333  84.00000   12.59179             8.54295
1156.01471  1603.01471  68.00000   19.91271             4.41329
1164.15702  977.29752   242.00000  26.02422             12.54692
1160.04878  1006.56098  164.00000  15.50572             13.52006
1163.76271  548.40678   177.00000  18.72106             12.08476
1161.84211  1266.09474  190.00000  16.59135             14.62137
1160.25333  878.29333   75.00000   11.08659             8.63582
1164.67857  1305.35714  112.00000  12.43245             11.60162
1169.12139  902.19075   173.00000  16.40353             14.17243
1166.77397  945.93151   146.00000  17.21619             11.14896
1166.56561  1228.06787  221.00000  20.50510             13.84252
1169.52653  1187.10612  245.00000  20.97706             15.05420
1168.93491  1399.59172  169.00000  19.69061             11.07615
1169.42913  824.76772   254.00000  25.04323             13.11679
1172.31401  1295.24638  207.00000  20.85249             14.03779
1169.25234  872.54206   107.00000  13.15799             10.80618
1172.87654  599.25926   162.00000  18.57528             11.62842
1168.50000  1385.46053  76.00000   10.41792             9.31722
1177.49367  693.70253   316.00000  31.99878             13.57318
1174.00571  671.02286   175.00000  17.24906             12.99377
1172.33333  1163.87255  204.00000  18.24994             14.78075
1171.16393  799.68033   122.00000  15.56016             10.04318
1173.80147  971.19853   136.00000  15.36401             11.49338
1174.95735  1144.24645  211.00000  17.33210             15.56336
1173.50000  585.78000   150.00000  15.69831             12.18915
1173.70175  1449.13158  114.00000  12.45120             11.74154
1174.40909  1048.89091  110.00000  12.83091             10.94406
1179.69474  660.08421   190.00000  19.91999             12.41689
1172.60000  766.92000   25.00000   6.29709              5.05215
1176.82692  892.17949   156.00000  16.20252             12.31933
1178.41667  1267.08681  288.00000  26.74858             13.84051
1177.44828  809.43966   116.00000  12.25443             12.10601
1180.47020  1389.15232  151.00000  15.69311             12.44178
1183.93863  1461.54152  277.00000  23.86522             14.89394
1179.89941  724.33136   169.00000  17.09112             12.79556
1179.30822  871.77397   146.00000  18.94259             9.94463
1182.22535  555.99531   213.00000  18.13182             15.15993
1185.65314  777.34686   271.00000  26.18790             13.26194
1181.35762  1211.51656  151.00000  15.59391             12.41012
1184.31905  709.60476   210.00000  22.56770             12.15532
1182.18617  929.63298   188.00000  16.79525             14.34444
1181.20690  1224.12069  174.00000  16.37805             14.17105
1180.44366  1430.52817  142.00000  14.41563             12.68522
1182.66667  792.98718   156.00000  15.79694             12.68795
1182.73214  1033.60714  112.00000  15.66159             9.19379
1184.16867  848.66265   166.00000  16.45901             12.99419
1183.49171  982.50829   181.00000  15.99185             14.63040
1183.05512  1286.34646  127.00000  14.55763             11.25352
1188.81148  1172.11475  244.00000  23.10956             13.74194
1185.71429  1324.53968  189.00000  16.55065             14.73806
1190.23148  914.48148   216.00000  21.79757             12.74840
1189.64674  586.39130   184.00000  16.97702             13.86689
1191.14352  617.55093   216.00000  21.43333             13.38395
1189.86636  749.96313   217.00000  22.68792             12.23320
1197.31013  721.96835   158.00000  20.72900             10.15048
1191.71642  859.89552   67.00000   9.52706              8.95498
1198.29798  974.51010   198.00000  24.05160             11.22124
1194.22293  821.35669   157.00000  17.35495             11.68484
1195.32520  1058.52033  123.00000  14.67113             11.05209
1198.57547  630.09906   212.00000  18.33645             14.84441
1201.46094  502.99609   256.00000  24.72164             13.40722
1199.00000  732.82090   134.00000  15.90843             10.89527
1198.52857  1097.08571  140.00000  14.10609             12.94722
1201.73039  1235.25000  204.00000  19.15771             13.65382
1200.04036  1280.02691  223.00000  20.35183             14.03035
1198.69849  1368.42211  199.00000  21.81115             11.77206
1200.05792  847.25097   259.00000  25.27904             13.09194
1205.12811  797.10320   281.00000  23.69780             15.32851
1206.06533  1464.49246  199.00000  16.84285             15.31078
1206.44318  1129.05682  176.00000  16.84070             13.47443
1208.64773  771.76894   264.00000  24.32535             14.15010
1209.52427  830.22816   206.00000  18.02630             14.65183
1212.44612  934.17293   399.00000  35.75641             14.34070
1207.04167  1009.56250  48.00000   8.39360              7.26571
1212.70404  1080.58296  223.00000  20.61248             14.15100
1210.49485  647.67010   97.00000   11.86778             10.54258
1212.31651  884.20183   218.00000  21.67364             12.83338
1212.33051  1360.44915  118.00000  13.07843             11.60857
1216.90094  1223.80660  212.00000  17.27603             15.76569
1214.69461  1314.23952  167.00000  16.90855             12.73882
1218.71717  606.15152   198.00000  16.56511             15.37118
1218.55152  838.64848   165.00000  20.60389             10.87029
1221.64198  862.48971   243.00000  18.49235             17.18445
1218.85030  1176.85629  167.00000  14.77655             14.48788
1221.16923  918.66667   195.00000  16.58168             15.09701
1222.97674  1280.89302  215.00000  19.76989             13.94046
1223.29293  1323.57576  99.00000   13.76101             9.21122
1224.65537  1069.76836  177.00000  17.10380             13.24009
1225.80543  1368.46154  221.00000  17.89219             15.97228
1230.49576  587.69492   236.00000  19.52972             15.44204
1227.78235  829.70588   170.00000  17.95284             12.40021
1228.89773  1057.69886  176.00000  20.11359             11.31000
1225.54545  1408.72727  110.00000  13.83674             10.16830
1229.34225  656.14439   187.00000  18.47889             13.08229
1228.79787  1013.30851  188.00000  17.05668             14.15414
1229.74317  615.95082   183.00000  16.96896             13.93853
1228.39474  1391.46711  152.00000  18.27158             10.85100
1229.87156  475.54128   109.00000  13.61562             10.36813
1231.16418  1106.91791  134.00000  15.59389             10.98135
1238.21895  1027.95098  306.00000  23.00820             19.05240
1233.66667  795.22222   144.00000  15.57358             11.86995
1234.51316  467.60526   76.00000   10.52839             9.34284
1240.55024  698.96172   209.00000  21.82046             12.23669
1236.25833  1162.11667  120.00000  12.88523             12.00077
1240.91244  543.10138   217.00000  20.53298             13.57990
1241.98953  647.92670   191.00000  20.26630             12.48228
1233.50000  887.00000   38.00000   7.45513              6.40723
1239.98305  678.81780   236.00000  21.31816             14.24663
1237.81183  1298.78495  186.00000  19.20007             12.47221
1243.27326  910.01744   172.00000  23.11705             9.63679
1242.66082  1105.55556  171.00000  20.13474             11.07868
1243.65517  1064.27011  174.00000  15.70093             14.17370
1243.76786  436.15476   168.00000  17.68514             12.21201
1249.94627  811.11343   335.00000  30.24438             14.37531
1251.21457  1358.17814  247.00000  24.04811             14.28933
1247.80645  938.11828   186.00000  20.25602             11.76332
1250.91053  1481.59474  190.00000  17.30375             14.20946
1250.51136  884.88636   176.00000  17.97871             12.73553
1252.74595  1331.18919  185.00000  21.94611             11.22381
1258.09748  727.63522   318.00000  33.18294             12.32506
1250.78947  1470.94737  95.00000   13.63150             8.92762
1256.33484  769.08145   221.00000  19.43543             14.49051
1255.61212  1135.03636  165.00000  17.90294             11.82352
1254.73099  963.91813   171.00000  17.99692             12.30761
1259.30317  753.41176   221.00000  18.97211             14.87573
1257.88667  890.93333   150.00000  20.27382             10.08245
1256.65244  1409.63415  164.00000  14.59840             14.32319
1260.79018  690.84821   224.00000  20.06627             14.43905
1260.18462  831.99487   195.00000  20.06560             12.38465
1257.86905  1116.96429  84.00000   11.54968             9.25951
1258.77519  1446.17829  129.00000  14.48416             11.38986
1262.29282  975.42541   181.00000  17.22736             13.86399
1269.10704  1075.32958  355.00000  25.21029             22.57648
1266.38217  1477.32484  157.00000  18.92575             10.68757
1269.66667  600.92063   189.00000  23.84852             10.53661
1268.81622  549.50270   185.00000  17.99041             13.28194
1267.15723  1398.53459  159.00000  17.01725             12.02455
1271.49231  1295.74231  260.00000  22.91536             14.96585
1273.20619  901.72680   194.00000  18.04727             14.04885
1273.41778  1102.02667  225.00000  19.82898             14.56536
1272.03797  1146.18354  158.00000  16.27559             13.61165
1272.98477  887.70051   197.00000  17.96013             14.20571
1271.28767  1440.15068  146.00000  16.35505             11.38987
1276.73118  632.88172   186.00000  19.25899             12.46463
1280.71856  684.22455   334.00000  36.05518             12.10473
1275.29586  824.28994   169.00000  15.74775             13.93336
1280.25830  842.60517   271.00000  25.14133             15.48375
1280.19758  1328.75806  248.00000  29.75252             11.72262
1275.74257  1465.04455  202.00000  19.14270             13.79014
1275.97203  809.67832   143.00000  14.71042             12.43971
1275.93583  929.32086   187.00000  16.77378             14.40614
1273.91503  975.51634   153.00000  20.09866             10.00535
1278.23849  1426.33891  239.00000  19.45584             16.25460
1278.79874  797.16352   159.00000  17.78256             11.71088
1277.03727  1344.06832  161.00000  17.36079             11.96773
1278.39429  1380.36571  175.00000  16.38811             13.83957
1277.98649  1043.41892  148.00000  14.86708             12.78290
1279.04286  1152.88571  70.00000   9.81198              9.08065
1281.62329  874.43151   146.00000  17.14715             10.99499
1284.91667  718.12963   216.00000  21.34804             12.93974
1287.41784  1009.95305  213.00000  20.28938             13.62994
1285.15603  1288.76596  141.00000  17.88402             10.24671
1285.41277  1515.35745  235.00000  21.37437             14.60458
1287.09914  615.56034   232.00000  19.15118             15.75183
1292.92188  641.72812   320.00000  30.66672             13.62248
1287.47945  1039.70548  146.00000  20.64527             9.23038
1290.90909  1123.41919  198.00000  21.25711             11.91466
1294.40351  818.63158   228.00000  25.70051             11.52745
1290.69430  1065.49223  193.00000  17.15199             14.43807
1294.44094  438.33071   254.00000  20.64718             15.72045
1295.37705  865.10492   305.00000  23.76313             16.72135
1292.95706  1263.82209  163.00000  14.99645             13.97434
1296.90419  926.69461   167.00000  17.25988             12.48337
1295.00694  1426.93750  144.00000  15.60694             11.76266
1299.43750  1175.10938  192.00000  20.42681             12.05853
1299.34161  1246.26708  161.00000  17.83983             11.51068
1300.80769  912.79060   234.00000  18.51616             16.13815
1301.62500  1032.71371  248.00000  19.11626             16.75365
1300.26613  1187.25000  124.00000  14.79041             10.94329
1298.88265  959.43367   196.00000  21.69998             11.88395
1301.40845  1108.95775  142.00000  14.29946             12.84071
1300.58974  1165.01282  78.00000   11.13346             9.03082
1302.57516  1414.86275  153.00000  15.46372             12.68566
1312.62018  1016.68843  337.00000  28.33863             15.63202
1304.64815  1062.25926  108.00000  13.12357             10.50454
1309.10628  571.67633   207.00000  18.09022             14.60355
1309.50617  779.67901   243.00000  19.39564             16.11135
1312.93644  1212.69068  236.00000  23.98250             13.00027
1309.55056  1115.95506  89.00000   11.65514             9.92756
1310.66667  1235.72316  177.00000  17.20417             13.50104
1310.21053  990.84211   57.00000   9.63345              7.53827
1318.05285  809.30081   246.00000  28.85062             11.32103
1316.63636  1034.72159  176.00000  16.41241             13.76770
1315.59375  1066.72917  96.00000   12.00887             10.17216
1322.91701  1479.38174  241.00000  27.60918             11.36516
1318.64881  558.94643   168.00000  15.40853             13.88338
1320.65581  611.63256   215.00000  17.80599             15.65227
1321.72000  527.46222   225.00000  19.19515             15.32790
1319.77551  862.81633   49.00000   8.14856              7.72022
1325.13636  1139.63131  198.00000  17.39973             14.57510
1326.41463  509.47805   205.00000  18.04744             14.69760
1329.23256  673.94574   258.00000  23.70626             14.01052
1326.54615  1231.61538  130.00000  15.44314             10.74033
1328.98846  419.83077   260.00000  20.13591             16.50898
1327.06993  858.85315   143.00000  17.49824             10.48559
1329.47143  925.08571   210.00000  23.69125             11.69793
1332.63415  1247.88780  205.00000  23.07229             11.86425
1331.11364  617.29545   44.00000   8.18646              6.85674
1338.95714  705.08571   210.00000  24.92719             11.08119
1339.19926  941.07380   271.00000  24.22545             14.63880
1335.40260  1324.41558  154.00000  16.74688             11.71539
1337.38411  877.43709   151.00000  15.03614             12.82048
1341.28794  1205.71206  257.00000  22.93216             14.28640
1342.59912  819.84141   227.00000  21.05795             14.03719
1340.13953  1003.08140  258.00000  24.89328             13.48901
1340.83410  1099.62673  217.00000  18.97557             14.74655
1337.12963  1236.75000  108.00000  12.37836             11.15663
1341.59903  775.49758   207.00000  17.39899             15.26567
1341.72848  1344.32450  151.00000  17.51760             11.06234
1345.72857  1116.62857  140.00000  19.26048             9.45617
1345.16892  1124.89189  148.00000  19.71903             10.27343
1345.57480  1281.71654  127.00000  16.20918             10.18478
1345.72973  1267.79730  148.00000  15.68351             12.16047
1350.24149  1400.82972  323.00000  22.49161             18.33503
1353.53097  599.53540   226.00000  23.17645             12.50073
1350.32558  1259.32558  129.00000  18.94928             8.82285
1352.22692  1037.45385  260.00000  21.50806             15.46979
1350.75610  1289.67480  123.00000  13.76196             11.70770
1355.39604  1462.94059  202.00000  22.51681             11.98891
1358.89540  838.48117   239.00000  27.81343             10.97915
1355.15837  863.26697   221.00000  19.27165             15.56604
1353.94872  1350.55128  156.00000  17.40518             11.60244
1355.21327  990.33175   211.00000  20.73834             13.39028
1359.95539  757.10409   269.00000  21.18008             17.01700
1357.66000  1484.82500  200.00000  19.29054             13.26708
1362.35681  806.34272   213.00000  20.50200             13.32355
1358.95556  907.08148   135.00000  15.01319             11.43903
1360.87195  1256.93902  164.00000  21.11527             9.97407
1360.19444  670.89444   180.00000  17.59761             13.03443
1363.65672  1371.37313  201.00000  17.84461             14.58426
1369.90645  922.34194   310.00000  30.70924             13.17730
1370.12838  646.43919   296.00000  30.10825             13.26986
1377.49563  902.41691   343.00000  28.70183             16.37037
1381.74510  731.95686   255.00000  30.26418             10.91709
1372.54000  1015.14000  50.00000   8.54011              7.43016
1375.26923  1065.64103  78.00000   11.49445             8.67886
1378.77519  1080.92248  129.00000  15.80369             10.63587
1384.21782  1501.86634  202.00000  20.06727             13.64843
1381.80296  868.21182   203.00000  20.54812             12.85625
1387.49223  715.15544   193.00000  20.98960             12.00787
1390.73408  801.47191   267.00000  22.92713             15.09187
1389.08621  1444.93448  290.00000  25.77335             14.59104
1392.14667  588.08889   225.00000  21.05547             13.74826
1391.53659  851.07724   246.00000  19.11492             16.51407
1388.10345  986.09195   87.00000   12.14751             9.14722
1388.16071  1087.08036  112.00000  13.39671             10.81719
1390.41317  1316.59880  167.00000  16.51893             13.21396
1389.75229  1073.36697  109.00000  12.58205             11.07214
1388.00000  652.78846   52.00000   9.90737              6.64868
1393.65351  756.25000   228.00000  18.83934             15.71402
1394.46104  575.55844   154.00000  18.19029             10.81344
1392.43979  1354.05759  191.00000  18.16457             13.44721
1398.44025  1411.99371  159.00000  17.65406             11.66835
1404.00000  832.90000   260.00000  23.69337             14.74928
1400.67879  1008.73333  165.00000  16.60478             12.77457
1396.47273  1274.78182  55.00000   8.52262              8.20479
1399.77647  1131.98824  85.00000   11.72983             9.23217
1404.56655  1469.49829  293.00000  24.55985             15.66431
1400.72857  816.41429   70.00000   11.54288             7.73728
1408.50685  736.61187   219.00000  28.08142             10.43790
1403.57534  1042.60274  146.00000  16.54447             11.28917
1403.95833  1318.57738  168.00000  17.34050             12.49162
1405.51111  908.90370   135.00000  17.02350             10.31818
1406.19858  1058.00709  141.00000  14.93520             12.11629
1406.57931  1102.22069  145.00000  14.71982             12.60837
1410.29670  975.22527   182.00000  22.76728             10.27755
1409.29213  1390.89326  178.00000  19.44471             11.82439
1408.45238  1087.53571  84.00000   11.69984             9.14487
1410.20833  1329.21875  96.00000   13.09306             9.44873
1412.65414  1067.24060  133.00000  15.88807             10.74691
1415.87647  915.55294   170.00000  19.62566             11.18838
1412.70803  1112.34307  137.00000  16.07479             10.88577
1413.41270  1304.13492  126.00000  14.10581             11.62552
1416.77228  775.58416   202.00000  18.43075             14.14487
1418.21973  1013.56951  223.00000  20.67452             14.04035
1419.67005  858.98477   197.00000  16.70394             15.31279
1415.87324  1043.55634  142.00000  17.17709             10.58395
1417.43478  1126.59783  92.00000   13.72134             8.60886
1419.93659  896.44390   205.00000  26.28568             10.33356
1420.26887  1529.02358  212.00000  22.68261             11.99188
1424.38956  785.02008   249.00000  27.68896             11.61270
1420.91981  872.94340   212.00000  18.54836             14.81562
1424.12422  992.70807   161.00000  19.70723             10.49707
1427.37888  759.14907   161.00000  17.83409             11.86209
1430.21563  613.92813   320.00000  27.70377             15.42319
1427.05882  967.61345   119.00000  13.11001             11.54025
1426.04478  738.67164   67.00000   9.70378              8.78714
1433.20217  821.84477   277.00000  23.23085             15.23425
1428.58491  978.77358   106.00000  12.87221             10.50125
1431.19149  923.56028   141.00000  16.58347             10.92089
1437.56780  1048.12288  236.00000  22.71069             13.31156
1437.18182  594.86364   176.00000  19.51334             11.52245
1434.44521  1077.34932  146.00000  15.69368             11.85223
1441.17763  1378.19079  152.00000  14.64961             13.38839
1440.59794  1087.80412  97.00000   12.46505             9.98656
1443.03937  1308.52756  127.00000  16.21752             10.08206
1444.79333  1488.62000  150.00000  14.11715             13.54323
1446.05333  935.30667   150.00000  14.19859             13.44804
1449.39037  561.10695   187.00000  17.97577             13.40382
1448.04839  1114.36290  124.00000  13.55023             11.64757
1447.31915  1365.08511  94.00000   14.68907             8.23178
1454.63918  908.13918   194.00000  21.25234             11.98482
1455.12563  1566.33166  199.00000  17.36769             14.65822
1462.19262  725.25000   244.00000  23.11279             13.69727
1460.12444  770.65333   225.00000  20.89870             13.73164
1458.49533  1087.15888  107.00000  12.09599             11.27782
1458.89773  1374.63636  88.00000   14.41561             7.78680
1464.09692  575.68282   227.00000  20.77999             14.25447
1461.08527  997.94574   129.00000  14.36685             11.57667
1462.88439  591.34682   173.00000  16.26580             13.53958
1465.06863  789.28431   204.00000  18.86303             13.78810
1463.74118  1014.82941  170.00000  17.37893             12.55060
1469.66160  1508.96958  263.00000  21.13886             16.31909
1466.67822  1482.96040  202.00000  17.57495             14.72701
1468.26515  754.93182   132.00000  17.20360             9.84981
1474.73303  832.80543   221.00000  27.32503             10.47187
1469.84672  854.44526   274.00000  22.18044             16.22870
1467.14130  1385.98913  92.00000   12.67094             9.40835
1469.10084  1084.42857  119.00000  14.05525             10.89386
1469.21774  912.24194   124.00000  16.57135             9.66296
1470.21000  1124.08000  100.00000  11.52909             11.03595
1476.89163  1141.28079  203.00000  21.86519             11.85424
1476.26984  954.11640   189.00000  19.13719             12.62420
1473.51075  1097.66667  186.00000  20.57846             12.08906
1475.97516  1360.42857  161.00000  19.58088             10.48991
1475.05785  965.21488   121.00000  15.15992             10.17514
1474.31944  1526.09722  144.00000  14.29254             13.12103
1475.00980  781.56863   102.00000  13.57803             9.64220
1477.31544  566.85235   149.00000  14.76013             12.88500
1475.88496  802.58407   113.00000  13.85299             10.46612
1477.82581  1389.99355  155.00000  20.58475             9.60853
1481.04198  1434.60687  262.00000  24.94254             13.84684
1481.29767  916.76744   215.00000  17.14116             16.03050
1480.73500  686.05500   200.00000  16.95610             15.06116
1484.66332  753.95980   199.00000  18.09460             14.32965
1481.71134  1072.67010  97.00000   13.93421             8.93738
1481.91667  1330.13636  132.00000  13.59729             12.36965
1484.37888  977.20497   161.00000  16.55361             12.43029
1482.79091  1036.72727  110.00000  15.01877             9.82213
1484.89474  701.77632   152.00000  16.46707             11.79048
1487.40078  1581.68482  257.00000  22.13167             15.00320
1485.24211  1029.05263  95.00000   13.19508             9.37984
1488.68478  611.38043   184.00000  17.19321             13.66561
1490.51429  938.69714   175.00000  17.61704             13.07594
1491.18563  798.53293   167.00000  21.92314             9.77987
1490.08475  1105.34746  118.00000  17.86661             8.53857
1491.36170  1021.22695  141.00000  14.62184             12.51923
1490.58678  1402.29752  121.00000  13.57870             11.37343
1500.68235  843.90588   255.00000  25.33319             12.93069
1495.54938  959.67901   162.00000  15.93566             13.00416
1493.58678  1004.63636  121.00000  13.07970             11.82549
1494.34579  1463.64486  107.00000  12.26220             11.20191
1497.45223  1066.36943  157.00000  17.89231             11.23300
1498.52795  1478.05590  161.00000  16.87207             12.27496
1501.97458  830.02542   118.00000  14.66074             10.65124
1503.71687  1382.75301  166.00000  16.05939             13.25491
1508.23226  892.03871   155.00000  19.65212             10.80997
1503.12381  1149.73333  105.00000  13.81480             9.68439
1504.87143  859.35000   140.00000  20.42306             9.14579
1508.44330  1364.92784  194.00000  17.50062             14.19546
1508.32231  772.35537   121.00000  16.65464             9.40185
1511.28085  1598.02979  235.00000  23.59994             12.76683
1507.66364  1472.56364  110.00000  13.67498             10.28998
1509.86916  901.02804   107.00000  14.89821             9.20584
1514.42248  824.84884   258.00000  21.57487             16.74297
1510.89423  925.10577   104.00000  12.99983             10.26722
1516.67128  654.46713   289.00000  27.01680             14.16024
1511.25564  1118.74436  133.00000  21.83646             8.21485
1514.26316  1098.42105  114.00000  14.41961             10.09727
1514.61538  1323.29231  65.00000   10.38207             7.95285
1517.92105  911.25439   114.00000  15.31851             9.55121
1515.87379  1083.98058  103.00000  13.91948             9.44307
1518.75000  878.40385   104.00000  13.03114             10.18875
1519.33125  1002.52500  160.00000  15.61866             13.25865
1520.02479  1021.01653  121.00000  13.53930             11.37543
1521.05674  1041.36879  141.00000  14.84463             12.16632
1519.72289  1169.14458  83.00000   10.67774             9.89042
1520.36000  1107.09000  100.00000  13.54916             9.54867
1522.85119  1396.12500  168.00000  16.43775             13.26850
1522.94167  898.45000   120.00000  12.77328             12.02562
1521.91304  1012.19565  46.00000   8.07904              7.39536
1525.61165  1131.21359  103.00000  12.96060             10.14392
1525.57317  769.08537   82.00000   10.42041             10.01429
1530.13402  1050.52062  194.00000  16.45154             15.19431
1527.70408  1156.41837  98.00000   12.81018             9.74071
1529.18224  702.91589   214.00000  22.48837             12.18022
1531.16000  635.14667   150.00000  15.55214             12.36516
1532.18571  729.27619   210.00000  20.04146             13.42620
1531.52809  869.04494   89.00000   12.38080             9.10716
1534.83260  985.98678   227.00000  18.08285             16.28260
1533.13889  1023.15556  180.00000  18.17318             12.87097
1533.70968  759.77419   155.00000  15.18844             13.12268
1534.81132  772.59119   159.00000  20.69676             10.10127
1533.55446  1527.88119  101.00000  14.45836             9.07555
1534.85000  1406.96429  140.00000  14.44310             12.44597
1534.57353  911.95588   68.00000   9.54788              9.10154
1537.15663  902.38554   83.00000   11.89441             8.96273
1535.06818  1127.59091  44.00000   8.20792              6.82680
1539.91057  934.86179   123.00000  14.47675             10.87729
1538.32609  1071.07971  138.00000  15.16209             11.62534
1545.07000  1382.40500  200.00000  21.87230             12.06398
1542.60606  1143.04040  99.00000   13.94879             9.14601
1540.68966  1157.89655  29.00000   7.81567              4.82411
1544.01333  611.44000   75.00000   11.32701             8.41656
1548.24621  627.97348   264.00000  19.40229             17.47449
1545.37333  1095.16000  150.00000  14.42058             13.31342
1547.83333  922.01190   84.00000   12.07777             8.84602
1549.37838  1081.60360  111.00000  13.28305             10.75606
1551.87204  583.78673   211.00000  18.61357             14.53987
1550.37363  799.39560   182.00000  18.03176             12.94313
1551.05000  1485.82500  160.00000  16.03953             12.77512
1555.91429  544.91429   245.00000  24.10126             13.28819
1553.54124  603.42784   194.00000  17.60309             14.04706
1551.85714  998.51429   105.00000  12.53457             10.70480
1554.37037  1141.42593  162.00000  16.43765             12.67895
1556.03125  776.06250   160.00000  18.81195             10.84124
1553.38760  1106.75194  129.00000  14.65248             11.24609
1554.09924  763.04580   131.00000  16.12291             10.45592
1558.60847  968.84127   189.00000  19.56390             12.55194
1555.92308  1409.39744  156.00000  17.23478             11.51284
1557.10870  889.91848   184.00000  20.86736             11.29050
1556.82234  1122.90863  197.00000  17.34004             14.48978
1557.65753  817.13699   146.00000  15.49592             12.71397
1558.46018  1581.30973  113.00000  13.34893             10.83904
1564.61200  1363.65200  250.00000  19.40224             17.13215
1564.82530  1495.86145  166.00000  16.69470             12.69513
1565.11348  861.34043   141.00000  16.45213             11.11406
1562.63043  935.60870   92.00000   12.53993             9.42855
1563.23776  1084.64336  143.00000  18.18147             10.19142
1561.70000  637.40000   30.00000   7.22320              5.24964
1568.27982  1006.26606  218.00000  18.18299             15.40115
1568.03804  553.90217   184.00000  17.35662             13.53440
1569.74882  749.84834   211.00000  22.64767             12.55506
1568.31405  927.50413   121.00000  16.89284             9.56728
1565.62667  942.68000   75.00000   12.97785             7.48155
1567.34416  1133.92208  154.00000  16.09963             12.34585
1565.38318  628.71028   107.00000  15.12897             9.07402
1566.41667  871.50000   108.00000  13.69070             10.05217
1571.52212  1047.57080  226.00000  21.09321             13.79807
1571.95420  915.19847   131.00000  16.76726             9.99983
1567.19231  851.30769   26.00000   6.81483              4.84268
1571.38750  1030.83125  160.00000  16.68877             12.62247
1568.28571  764.91429   35.00000   7.65082              5.88811
1571.37069  904.41379   116.00000  13.44956             11.06558
1572.94857  990.38286   175.00000  15.71081             14.17664
1575.95259  780.48276   232.00000  18.35371             16.28614
1577.39901  951.75862   203.00000  17.72822             14.62113
1578.15267  844.82443   131.00000  16.24696             10.27681
1578.08333  895.36458   96.00000   15.99006             7.65376
1578.44318  942.02273   88.00000   17.77696             6.68184
1580.36364  833.57851   121.00000  17.81184             8.68332
1579.23392  1063.72515  171.00000  16.39644             13.31037
1577.36905  1111.33333  84.00000   11.55753             9.32942
1580.01562  792.17188   128.00000  14.66685             11.37571
1578.91603  1094.95420  131.00000  13.38333             12.45112
1581.57485  590.77246   167.00000  16.17612             13.35296
1581.75625  1028.90000  160.00000  18.01392             11.54504
1580.80645  933.40323   62.00000   9.87178              7.98337
1581.05479  905.02740   73.00000   10.30679             9.04239
1582.95722  1639.17112  187.00000  18.21430             13.15552
1584.31000  974.56000   100.00000  12.43064             10.23152
1592.73884  541.63839   448.00000  28.64004             20.81449
1588.93168  640.03727   161.00000  15.73541             13.48021
1591.69417  920.05825   206.00000  24.85430             11.02047
1589.01266  760.55696   158.00000  14.50345             13.97921
1590.68794  1055.40426  141.00000  15.94992             11.45489
1587.74545  743.70909   55.00000   9.02827              7.73361
1591.39865  603.12838   148.00000  14.47700             13.07522
1592.19118  726.19853   136.00000  14.78069             11.75076
1590.32877  772.50685   73.00000   10.58160             8.85180
1589.95455  779.29545   44.00000   9.08207              6.15666
1592.62577  886.89571   163.00000  16.41278             12.71528
1598.40777  504.32039   309.00000  24.21764             16.42043
1595.36364  715.09091   121.00000  14.34121             10.85209
1594.58268  796.81890   127.00000  15.11433             11.05719
1594.58889  1154.20000  90.00000   11.50682             9.97241
1596.62437  1451.66497  197.00000  17.94759             14.01968
1595.89796  1124.71429  98.00000   13.21581             9.58913
1603.77619  1516.34762  210.00000  18.48387             15.15859
1603.19580  846.75524   143.00000  14.41728             12.73383
1604.51915  1358.76596  235.00000  18.43662             17.51231
1601.24731  1140.77419  93.00000   12.93140             9.19651
1604.03846  1815.80769  130.00000  15.43140             10.75723
1607.43709  552.74172   151.00000  14.83068             13.03814
1605.06849  1661.28767  73.00000   11.29232             8.42466
1609.76126  869.77928   222.00000  20.16949             14.06822
1607.42953  1001.12081  149.00000  15.42980             12.31893
1609.15447  1409.17886  246.00000  19.71522             15.95554
1608.61832  946.77099   131.00000  14.59258             11.48818
1608.40698  681.95349   86.00000   12.28025             8.94422
1609.56931  708.89109   202.00000  23.61631             11.02936
1610.72571  1093.34286  175.00000  16.43134             13.71467
1610.80537  1124.75839  149.00000  16.00006             11.87244
1609.28333  1377.98333  60.00000   10.99537             7.03890
1612.98065  689.98710   155.00000  20.10337             10.10784
1612.70748  894.91497   294.00000  27.33141             14.27710
1610.82278  922.89873   158.00000  15.57278             12.92869
1611.62209  1015.84884  172.00000  15.44803             14.25713
1617.13187  1493.84615  182.00000  22.75518             10.32471
1615.44056  655.38462   143.00000  16.76223             11.15385
1616.27184  667.61650   206.00000  20.18957             13.22366
1617.25342  1394.36301  146.00000  19.25582             10.28873
1612.05000  732.92500   40.00000   7.32120              6.94766
1615.61069  970.54962   131.00000  15.10268             11.11813
1617.93377  832.84106   151.00000  18.77627             10.35707
1616.48246  856.42105   114.00000  14.04881             10.43610
1619.98295  625.20455   176.00000  20.56198             11.07347
1615.69767  1027.44186  86.00000   11.82236             9.45092
1618.58491  768.66667   159.00000  21.89026             9.31381
1620.27007  1058.55474  137.00000  16.36903             10.74491
1619.21277  1111.19149  141.00000  16.00724             11.27052
1619.50394  696.35433   127.00000  16.50845             9.84673
1621.35256  1375.31410  156.00000  14.56324             13.84664
1626.35976  722.04878   164.00000  17.51175             12.06529
1626.48507  941.88806   134.00000  16.24448             10.53081
1625.10526  1690.21930  114.00000  13.14246             11.11089
1624.82000  648.34000   50.00000   8.90159              7.17730
1627.29508  845.78142   183.00000  18.58257             12.64157
1628.85000  910.36538   260.00000  20.34683             16.42146
1629.66667  824.96124   129.00000  12.89097             12.85179
1632.19249  770.82629   213.00000  19.63121             13.95164
1628.94000  1162.86000  50.00000   8.92903              7.10361
1633.46154  674.90533   169.00000  15.55933             13.99029
1632.25397  1109.98413  126.00000  15.54421             10.40795
1637.61500  808.08500   200.00000  20.30771             12.96108
1634.57692  957.07051   156.00000  15.23163             13.12769
1642.90685  976.22740   365.00000  25.77147             18.47633
1641.07857  554.96429   140.00000  16.93336             10.53969
1638.49275  1470.01449  69.00000   10.21949             8.66568
1643.55114  1072.09659  176.00000  20.72127             11.02814
1644.18653  601.43523   193.00000  18.49014             13.42716
1642.86709  616.55063   158.00000  14.98677             13.45351
1647.24051  1428.85232  237.00000  21.33935             14.57814
1643.22449  1442.69388  147.00000  15.83336             11.92974
1642.91765  1133.36471  85.00000   12.93829             8.46650
1646.86752  1014.37607  234.00000  18.46016             16.20790
1648.91892  1383.91892  185.00000  22.45143             10.59237
1644.22353  648.08235   85.00000   11.85477             9.16855
1646.72024  898.82738   168.00000  16.48939             12.97945
1644.20000  1484.34286  70.00000   9.90362              9.01889
1651.86857  836.89714   175.00000  19.66318             11.43925
1648.19608  933.30392   102.00000  13.23106             9.92239
1649.61290  1472.46237  93.00000   12.06487             9.86017
1655.88532  1408.21101  218.00000  23.72132             11.98049
1651.75000  1132.14865  148.00000  19.20341             10.10939
1652.95652  1346.88538  253.00000  25.71845             12.90940
1653.61392  649.93038   158.00000  17.92878             12.05663
1657.69458  675.92118   203.00000  19.15912             13.59970
1655.59712  849.16547   139.00000  14.66951             12.13417
1656.41549  1097.13380  142.00000  17.01829             10.72339
1656.16384  1518.37853  177.00000  18.49632             12.24700
1659.71823  600.79006   181.00000  15.69414             14.75342
1657.57931  872.66897   145.00000  16.33295             11.35212
1658.97688  937.48555   173.00000  15.15005             14.59556
1666.14516  630.02419   248.00000  25.85207             12.67846
1661.71111  1016.40741  135.00000  14.45490             12.03137
1660.55705  1543.37584  149.00000  16.25124             11.68840
1663.15676  1247.68649  185.00000  21.05440             11.35475
1666.44017  535.14957   234.00000  20.12156             14.89358
1664.81522  1439.53261  184.00000  16.45274             14.28455
1665.42105  766.98830   171.00000  17.21888             12.79228
1665.47573  1112.16505  103.00000  12.12511             10.83291
1671.21145  662.33921   227.00000  23.10134             12.68045
1670.02260  705.81921   177.00000  19.76521             11.63827
1666.37931  904.24138   145.00000  15.05140             12.26660
1673.10849  1031.02830  212.00000  25.24039             10.77055
1667.01250  1062.78750  80.00000   11.11472             9.15084
1675.51376  730.38073   218.00000  20.08869             14.00239
1674.51095  812.39416   137.00000  18.85454             9.69632
1670.36250  1076.86250  80.00000   10.93928             9.41951
1675.09821  1418.78125  224.00000  18.61085             15.48507
1672.88235  677.31092   119.00000  13.04507             11.65430
1673.73988  960.19653   173.00000  21.39417             10.51558
1677.31288  979.57055   163.00000  15.39433             13.49280
1677.28477  1380.22517  151.00000  14.64801             13.20706
1679.40411  764.44521   146.00000  14.29796             13.06582
1680.03704  604.69136   162.00000  17.75290             11.74753
1680.73656  646.04301   186.00000  19.33598             12.36502
1681.21667  1222.98333  120.00000  12.59632             12.21108
1684.63359  859.89313   131.00000  15.09043             11.06510
1685.37436  1043.69231  195.00000  17.25736             14.59349
1684.40288  1073.90647  139.00000  14.44226             12.39723
1684.92553  799.06383   94.00000   12.07503             10.01687
1685.82090  832.35821   134.00000  16.09524             10.76704
1685.46715  899.40876   137.00000  14.53342             11.98851
1685.49550  933.45045   111.00000  16.26054             8.94359
1689.07353  1367.13971  136.00000  17.65409             9.87238
1689.13139  788.86131   137.00000  14.63405             12.03544
1687.81538  882.16154   130.00000  14.15224             11.75050
1691.36879  921.62411   141.00000  16.57315             11.26031
1690.29524  607.18095   105.00000  13.37380             10.26617
1693.68874  1499.98675  151.00000  15.60618             12.46267
1692.53947  571.89474   76.00000   10.04718             9.71755
1692.54098  960.95082   61.00000   10.67885             7.22892
1695.00000  808.36275   102.00000  13.41767             9.70031
1692.75000  931.63235   68.00000   10.96477             8.16877
1696.51515  820.98990   99.00000   12.53206             10.10614
1699.47465  948.00461   217.00000  20.93659             13.36371
1699.08696  775.33913   115.00000  14.80825             9.90247
1696.15094  887.16981   53.00000   11.50085             5.97153
1700.37313  590.32090   134.00000  13.39771             12.77705
1702.19328  709.19328   119.00000  14.41332             10.55129
1701.03333  1122.26667  90.00000   12.59295             9.10652
1701.78182  625.30000   110.00000  13.25571             10.65035
1705.62109  1027.92969  256.00000  18.48854             17.99959
1703.45714  914.99048   105.00000  14.00567             9.62342
1706.11047  1048.92442  172.00000  15.66968             13.98796
1706.47712  1507.62092  153.00000  15.24086             12.77648
1709.08333  576.45455   132.00000  15.13206             11.29082
1711.08333  802.21429   168.00000  17.72502             12.32987
1710.43478  1007.00000  207.00000  17.24171             15.35627
1709.54867  815.19469   113.00000  14.11005             10.24721
1715.24113  631.51773   141.00000  19.68907             9.15592
1711.57143  783.53782   119.00000  14.14143             10.74922
1715.05376  855.42473   186.00000  19.43527             12.30369
1712.84868  992.21053   152.00000  14.67827             13.29025
1712.34815  1132.70370  135.00000  14.08474             12.21513
1713.50000  732.03472   144.00000  14.64829             12.51521
1713.01075  757.94624   93.00000   12.69331             9.34140
1716.68908  686.84874   119.00000  12.84936             11.82959
1715.00000  916.07368   95.00000   11.45084             10.65398
1715.48739  940.30252   119.00000  12.72499             11.89603
1714.80000  1286.87857  140.00000  19.18009             9.37121
1718.94737  597.33835   133.00000  17.79800             9.66983
1720.16456  606.60759   158.00000  19.41370             10.52344
1718.46259  700.16327   147.00000  15.34216             12.27377
1720.82468  669.05844   154.00000  15.21050             12.91695
1720.57073  870.95610   205.00000  20.49725             14.05723
1721.42500  1064.40000  160.00000  17.40337             11.81833
1722.00943  1375.22642  106.00000  16.22890             8.42891
1723.33708  1090.44382  178.00000  19.26574             11.88885
1724.21986  1020.26950  141.00000  14.54921             12.36108
1724.97170  1176.51887  212.00000  19.72759             13.86770
1725.69565  756.63354   161.00000  16.29609             12.66969
1725.01282  916.28205   78.00000   12.49797             8.01679
1729.42767  835.08805   159.00000  17.30355             11.79391
1730.77095  979.86034   179.00000  15.83099             14.44792
1733.58113  1008.39623  265.00000  19.03484             17.86978
1730.48148  1428.93827  162.00000  15.37566             13.67765
1733.97312  497.58602   186.00000  17.61625             13.58803
1732.82353  682.68627   51.00000   9.91613              6.69718
1735.06806  1123.72775  191.00000  16.45627             15.04250
1736.25000  658.54545   176.00000  16.39856             13.69339
1737.02804  572.52336   107.00000  13.92858             9.82993
1739.78351  673.60825   97.00000   12.31340             10.08313
1740.56044  854.31868   182.00000  18.76350             12.35933
1742.15132  889.05921   152.00000  15.17004             12.74756
1744.00515  1167.12887  194.00000  21.57142             12.20003
1745.60753  873.89247   186.00000  15.80952             15.07154
1742.70000  725.10000   60.00000   10.25202             7.72632
1748.31959  1061.08591  291.00000  30.42634             13.24542
1745.34118  1478.98235  170.00000  18.62175             11.89258
1746.98295  922.64205   176.00000  17.76481             12.72765
1746.32323  974.63636   198.00000  19.02676             13.34898
1746.62281  805.39474   114.00000  13.75971             10.68230
1748.01205  733.10843   83.00000   11.08165             9.53848
1752.03623  682.42029   138.00000  13.71530             12.92116
1750.26126  721.74775   111.00000  12.81769             11.12469
1752.75159  707.57325   157.00000  15.27846             13.15919
1754.31953  941.96450   169.00000  15.37989             14.08702
1757.32549  1116.83922  255.00000  19.67754             16.81326
1756.14667  809.20667   150.00000  15.66179             12.58044
1757.67984  991.50988   253.00000  20.36003             15.84414
1761.99712  766.57349   347.00000  23.66961             18.92736
1759.43243  738.80405   148.00000  14.97922             12.67538
1760.53293  852.70060   167.00000  21.35645             10.07792
1761.24306  903.00000   144.00000  14.30996             12.83016
1764.57754  1060.65775  187.00000  19.19073             12.71455
1763.08844  1183.63946  147.00000  15.69099             11.99416
1763.54630  601.87037   216.00000  17.57522             15.67237
1766.78868  1415.08679  265.00000  21.29446             16.37824
1768.74348  488.48261   230.00000  20.71805             14.36664
1765.46584  1008.77640  161.00000  16.97417             12.83157
1769.60377  680.66038   212.00000  20.22919             13.57050
1771.34553  1090.72358  246.00000  20.29407             15.56451
1772.73626  912.09890   182.00000  16.84228             13.82751
1773.33333  1171.15152  165.00000  16.46936             12.84204
1772.30556  718.27778   72.00000   9.93686              9.30217
1777.10556  988.06111   180.00000  16.16864             14.36753
1779.09545  828.73182   220.00000  19.32599             14.57926
1780.34010  940.95939   197.00000  17.57851             14.80644
1781.98630  1028.73516  219.00000  22.98886             12.42159
1785.89189  752.59797   296.00000  24.91184             15.22552
1784.03883  899.35437   206.00000  18.83271             13.96371
1783.72222  1599.88889  144.00000  16.77574             11.31509
1787.60927  885.07285   151.00000  16.48904             11.77357
1787.65169  659.92135   178.00000  17.76986             12.79179
1791.03125  918.91250   160.00000  15.06753             13.58424
1793.86705  1156.53179  173.00000  18.27992             12.11109
1797.35204  1060.41327  196.00000  19.04057             13.21433
1798.82390  688.25786   159.00000  18.21656             11.21457
1802.13780  729.35039   254.00000  19.20054             17.01043
1800.88276  859.53793   145.00000  16.54275             11.29898
1801.53548  993.00000   155.00000  14.97477             13.25557
1804.77703  1551.06757  148.00000  22.04738             9.30366
1804.09722  769.75463   216.00000  17.52937             15.94595
1803.85909  1018.10000  220.00000  21.95662             13.38561
1804.82386  1082.69318  176.00000  17.53745             12.81260
1807.29341  796.53892   167.00000  16.43072             13.37197
1807.28571  1034.33929  168.00000  17.49299             12.23926
1810.48026  1441.23684  152.00000  17.28207             11.26733
1818.53374  700.02454   163.00000  17.00078             12.22291
1822.05430  753.64253   221.00000  20.57324             13.74586
1817.14286  1529.32857  70.00000   12.09792             8.05256
1821.02991  1010.02564  234.00000  24.14183             12.85495
1823.72727  863.89394   198.00000  17.03930             15.35338
1827.67614  946.74432   176.00000  18.07023             12.43956
1827.04233  883.02116   189.00000  18.84404             13.09948
1833.33248  1102.12020  391.00000  25.81159             19.46700
1832.65926  769.34815   135.00000  15.87579             10.88863
1833.61745  512.34228   149.00000  14.77196             12.92062
1833.99301  707.65035   143.00000  15.95438             11.45395
1835.84076  1024.99363  157.00000  16.27858             12.33823
1834.63000  844.28000   100.00000  11.93553             10.75632
1836.27841  1056.71023  176.00000  16.19474             13.89773
1834.16667  1397.48889  90.00000   11.24344             10.30991
1841.51613  958.90323   31.00000   6.77259              5.81799
1848.23265  924.89796   245.00000  21.97233             14.40084
1848.28058  754.82734   139.00000  14.22442             12.47564
1855.15152  646.44318   264.00000  30.23970             12.30135
1851.50862  906.14655   232.00000  18.51319             16.03293
1849.70588  1117.49673  153.00000  16.03348             12.32144
1852.79913  1133.63319  229.00000  19.38931             15.23322
1854.15948  1473.68534  232.00000  21.98552             13.66688
1853.55497  1029.24607  191.00000  20.44299             12.36017
1854.13580  875.88889   162.00000  16.81859             12.59827
1858.00526  509.66316   190.00000  19.44761             12.48898
1855.62037  665.43519   108.00000  15.55427             9.38808
1858.20574  692.97608   209.00000  16.97524             15.75156
1858.06667  733.94872   195.00000  17.90506             13.94029
1858.42529  710.77011   174.00000  16.82765             13.21741
1859.03030  763.19697   132.00000  15.52024             10.88516
1862.14815  821.50370   135.00000  16.81421             10.41568
1866.84667  918.00000   150.00000  14.83540             12.99082
1866.27907  946.68605   86.00000   11.03977             9.97429
1871.39035  593.16228   228.00000  20.29819             14.39302
1867.95122  795.40244   82.00000   11.32904             9.36777
1868.03509  754.70175   57.00000   9.86523              7.47670
1872.70270  389.95495   222.00000  18.24872             15.77164
1875.53414  620.67871   249.00000  18.85279             16.90400
1879.84800  648.36800   125.00000  13.61347             11.78648
1881.66443  747.83893   149.00000  17.11010             11.10810
1881.12903  1064.20430  186.00000  18.43263             13.05541
1882.07438  766.77686   121.00000  14.46957             10.66364
1881.69565  825.63768   69.00000   12.58819             7.03088
1886.14545  726.40606   165.00000  15.65802             13.43699
1887.40870  1033.70435  115.00000  15.45667             9.75942
1895.02941  1148.10662  272.00000  28.62297             12.18969
1899.95062  701.16049   162.00000  16.04154             12.89638
1902.39873  683.60759   158.00000  14.67337             13.71458
1906.81481  1070.52593  135.00000  13.49061             12.78162
1906.79058  563.32461   191.00000  19.57865             12.56130
1909.60140  1332.68531  143.00000  16.67475             10.92157
1913.17877  747.40782   179.00000  17.27452             13.26670
1910.39394  831.39394   99.00000   12.93202             9.75244
1913.00621  1087.78882  161.00000  16.44416             12.59718
1918.07857  1020.68571  140.00000  15.47935             11.55221
1927.68151  999.24315   292.00000  31.34027             12.36818
1921.98870  1146.68362  177.00000  16.25841             13.91514
1921.41549  979.66197   142.00000  14.57510             12.41042
1923.10490  905.82517   143.00000  14.92052             12.28279
1926.06944  355.48611   72.00000   11.07560             8.70030
1931.39394  1016.49697  165.00000  16.18151             13.19102
1938.44937  1125.38608  158.00000  14.95176             13.70554
1945.51744  631.07558   172.00000  22.57047             9.82941
1943.08163  1346.46939  98.00000   12.65514             10.10007
1948.44068  853.46610   118.00000  12.99035             11.63235
1949.01562  903.94531   128.00000  15.04003             10.87983
1950.78652  1025.07303  178.00000  17.41917             13.19962
1951.51528  1094.25764  229.00000  21.75845             13.47040
1953.91781  1078.16438  73.00000   11.52556             8.36770
1956.33613  682.07563   119.00000  14.77723             10.46658
1959.17778  1356.40000  135.00000  15.85448             10.87162
1965.23932  590.57265   234.00000  20.10609             14.92920
1962.47200  1440.17600  125.00000  13.34613             12.28839
1962.38835  822.00000   103.00000  13.49799             9.90504
1966.66887  845.40397   151.00000  14.68608             13.22375
1968.95455  1126.53535  198.00000  16.56840             15.27858
1983.92617  671.24832   149.00000  14.69142             12.98428
1980.86111  1019.54167  72.00000   10.50429             8.99327
1981.28767  1141.16438  73.00000   10.17895             9.17723
1983.39091  1079.46364  110.00000  12.63339             11.22515
1984.58000  777.49333   150.00000  15.97890             12.01936
1998.33493  688.91388   209.00000  19.27872             13.91727
2014.14737  955.53684   190.00000  16.34132             14.88774
2013.07031  300.89062   128.00000  14.04301             11.74301
2016.23438  1238.02604  192.00000  16.68032             14.78323
2019.03883  1125.85922  206.00000  18.15984             14.52602
2021.28713  1164.63366  101.00000  12.11236             10.60556
2024.40000  737.25000   140.00000  14.66296             12.21043
2030.18224  1145.83178  214.00000  18.21794             14.99348
2031.90647  512.98561   139.00000  13.79233             12.87078
2033.60577  635.30769   104.00000  12.65362             10.48257