# Filename: Nuclei_416_ctrl_60x_013.npz
# Voxel size (nm): (108, 108)
# Area quantity: voxels
# Num nuclei detected: 1348
Y           X           AREA       MAJOR_AXIS_LENGTH    MINOR_AXIS_LENGTH
5.17143     861.12857   70.00000   10.34511             8.78397
10.80000    1071.20000  75.00000   10.43082             9.26056
19.23590    1481.54359  195.00000  18.13510             13.76515
19.22857    659.56190   105.00000  14.17505             9.54384
21.83889    900.73333   180.00000  18.23390             12.62514
18.90441    1163.98529  136.00000  14.06425             12.34028
26.82353    834.75000   68.00000   10.45586             8.42965
31.29204    1174.07080  113.00000  12.95938             11.11600
36.48241    700.31658   199.00000  18.30809             13.89657
32.02778    817.19444   72.00000   10.99105             8.42757
34.11017    1315.33051  118.00000  13.61350             11.06460
38.39655    958.16379   116.00000  12.80872             11.56801
49.42202    1333.69725  109.00000  13.58347             10.31338
52.49080    617.02454   163.00000  16.54885             12.69035
57.86364    880.96364   110.00000  12.55888             11.31657
61.74172    1141.98675  151.00000  15.27336             12.62128
64.96234    817.97490   239.00000  22.33532             13.68795
66.50000    1161.50000  52.00000   10.42720             6.29136
73.00000    544.95522   134.00000  14.63615             11.82794
73.78750    725.76250   160.00000  16.12811             12.71452
77.13793    1320.26293  232.00000  20.55498             14.47993
79.67476    1077.27184  206.00000  20.73617             12.93413
83.94886    866.52273   176.00000  18.44543             12.23956
85.20571    1221.53143  175.00000  15.66212             14.23775
94.32520    412.87805   123.00000  14.86615             10.60882
95.81379    1173.28276  145.00000  16.34621             11.32294
97.33803    779.41197   284.00000  22.49614             16.15680
102.81364   661.88636   220.00000  26.09005             10.94123
96.73810    1143.61905  84.00000   12.91564             8.26093
99.42458    1507.36313  179.00000  18.32411             12.49507
99.45902    1098.04098  122.00000  13.75158             11.47003
106.94194   401.36774   155.00000  17.59343             11.79592
107.29189   1184.30270  185.00000  19.28292             12.44921
106.40909   970.21970   132.00000  14.78648             11.42437
110.40559   1339.99301  143.00000  14.36300             12.66546
114.01765   1234.98235  170.00000  17.56719             12.33628
112.95000   841.69286   140.00000  14.21196             12.59079
119.41818   1036.53636  220.00000  20.80444             13.50258
118.09174   1079.39450  109.00000  13.27549             10.49592
119.87671   1627.46575  73.00000   12.76872             7.94756
122.70899   635.24868   189.00000  19.36908             12.57768
120.98990   1478.74747  99.00000   12.55365             10.07898
124.22222   712.68333   180.00000  17.57251             13.17958
124.30909   1610.04848  165.00000  16.21332             13.01182
131.81646   1392.64557  158.00000  18.52396             10.93757
134.42211   1185.33668  199.00000  17.87451             14.24897
134.10891   750.22772   101.00000  13.64394             9.42252
134.84746   1057.07910  177.00000  17.78594             12.69287
138.44335   1301.94089  203.00000  17.48966             14.83022
138.90385   1169.32692  52.00000   9.12854              7.50668
144.54464   1449.52679  112.00000  13.49075             11.12073
148.29082   661.32653   392.00000  26.39532             19.45333
147.17919   996.78613   173.00000  16.04930             13.81446
148.86503   1078.00613  163.00000  19.82312             10.65596
147.09615   1091.73077  104.00000  11.96352             11.11604
151.43651   1015.19048  126.00000  13.69478             12.38273
151.83750   1579.67500  160.00000  15.69216             13.08601
152.76398   1621.96273  161.00000  16.98529             12.06103
152.97917   891.02604   192.00000  16.35100             15.08455
153.66207   265.68966   145.00000  15.75258             11.75695
154.86928   1185.21569  153.00000  16.77439             11.67118
151.46296   1034.46296  54.00000   9.12225              7.50309
159.65445   1264.93194  191.00000  17.07566             14.64582
161.96923   442.71923   260.00000  18.84927             17.71347
162.76243   1393.22099  181.00000  15.83125             14.71260
164.98537   1560.91220  205.00000  16.75771             15.63326
167.10000   608.03750   240.00000  19.45685             15.76013
167.78049   638.78537   205.00000  17.82581             14.68335
162.42500   1044.20000  40.00000   7.83752              6.65156
166.50000   1034.51786  56.00000   9.54284              7.46901
168.81429   1489.56429  140.00000  14.29581             12.49162
168.20530   1104.15894  151.00000  17.10123             11.37351
171.81481   671.82222   270.00000  22.18973             16.23755
172.12364   774.09818   275.00000  20.79729             16.90888
171.02837   830.31915   141.00000  13.93591             12.88489
171.50500   1008.03500  200.00000  20.47711             12.79171
174.02752   1320.28440  109.00000  13.39552             10.67736
176.11312   407.90045   221.00000  20.15304             14.11037
178.47126   855.73563   261.00000  20.06314             16.58977
177.11921   699.25166   151.00000  16.19121             11.87218
179.61417   1088.78740  127.00000  14.01797             11.59749
184.30213   1515.70213  235.00000  19.79973             15.22544
188.15769   1233.53846  260.00000  24.10451             14.27522
185.59140   634.73118   186.00000  17.58487             13.59549
188.48997   984.42980   349.00000  23.40813             20.03641
190.23016   889.89286   252.00000  21.50914             15.23182
187.13333   1557.17333  150.00000  15.62196             12.29373
188.39568   749.15827   139.00000  14.28359             12.41639
188.85443   791.65823   158.00000  14.49174             13.89050
191.07907   952.13488   215.00000  18.83494             14.62899
193.19689   652.23834   193.00000  19.06070             13.01454
201.33772   613.37719   228.00000  26.37516             11.14989
198.47639   1377.21459  233.00000  20.46915             14.61355
198.79412   510.36765   204.00000  19.01685             13.70234
201.36604   692.05660   265.00000  22.02840             15.37395
197.84416   759.00000   154.00000  15.04846             13.11138
200.77016   718.36290   248.00000  19.69479             16.18247
200.86792   904.10692   159.00000  16.75263             12.27953
200.69014   1086.95070  142.00000  16.15210             11.17148
200.09633   1451.56422  218.00000  18.40916             15.19803
202.32812   849.53125   192.00000  17.59968             14.02128
204.68327   934.52313   281.00000  21.25460             16.85764
201.21429   400.33571   140.00000  14.86209             12.64043
202.50327   1146.74510  153.00000  15.26956             12.83671
205.07173   356.62025   237.00000  19.40396             15.56475
209.64186   1051.63721  215.00000  18.56690             14.80369
211.93158   771.99474   190.00000  18.48636             13.31996
214.14286   681.96154   182.00000  22.62985             10.34680
211.69325   885.21472   163.00000  14.86231             14.03186
213.95808   1365.83832  167.00000  15.51376             13.72188
215.62602   1235.99187  123.00000  13.47935             11.63691
220.32184   1345.53257  261.00000  21.75385             15.34757
218.32903   1199.81290  155.00000  16.65446             11.94724
221.28042   1000.64550  189.00000  21.53145             11.92240
222.61376   656.12169   189.00000  20.71335             11.83641
221.42222   435.18519   135.00000  14.77235             12.01506
223.12834   828.58289   187.00000  17.58536             13.56335
227.41089   1279.20297  202.00000  17.68885             14.67070
226.88525   974.95082   122.00000  14.39312             10.97532
227.78082   1142.05479  73.00000   11.19405             8.35595
232.23936   350.36702   188.00000  18.27441             13.36857
232.03933   1327.72472  178.00000  16.35775             13.88703
232.82775   843.27751   209.00000  19.32115             13.93184
234.84239   695.42391   184.00000  17.18319             13.83081
231.20690   1188.28736  87.00000   11.38575             9.79045
238.95175   479.74123   228.00000  18.43326             15.79310
237.18431   936.77255   255.00000  24.77559             13.31191
240.71951   1101.15041  246.00000  20.33625             15.58934
240.11310   1133.32143  168.00000  20.71364             10.57589
238.40288   1354.53237  139.00000  14.82010             11.96619
239.33333   763.06667   165.00000  15.69390             13.44792
244.18672   707.70124   241.00000  21.64341             14.24679
243.55738   244.75410   183.00000  16.55444             14.19502
243.75000   1087.51429  140.00000  15.10732             11.84760
245.81034   1339.19540  174.00000  17.41361             12.89544
248.58095   1281.10476  210.00000  17.97678             14.90358
249.15319   414.78723   235.00000  21.90135             14.40734
249.87059   1255.94118  255.00000  19.84401             16.43507
249.68675   785.44177   249.00000  20.28648             15.69665
247.67005   903.09137   197.00000  22.99952             11.03338
254.05236   444.21990   191.00000  20.69654             12.45171
249.76585   1054.13659  205.00000  23.22500             11.45720
259.19847   991.18702   262.00000  25.26022             14.05979
256.47761   566.53234   201.00000  18.80811             13.65464
260.37415   1127.07483  294.00000  23.77964             16.01472
262.43056   679.39583   288.00000  24.00797             15.60021
262.11494   944.94636   261.00000  20.45272             16.57226
260.27083   1735.48958  96.00000   13.67962             9.50575
261.53937   1013.64567  254.00000  25.81275             12.74272
266.55707   531.61413   368.00000  25.87687             18.19332
263.93506   788.75758   231.00000  22.98251             12.83562
266.11404   837.53070   228.00000  19.56415             15.01705
262.92105   1308.47368  76.00000   11.04565             8.95537
267.79279   1159.29129  333.00000  23.85073             17.81062
268.66537   463.36965   257.00000  19.05403             17.31829
267.96327   740.42857   245.00000  21.05116             15.02089
265.74375   854.36875   160.00000  17.51194             11.70922
267.86089   1058.14698  381.00000  31.00399             16.10164
268.27962   1393.38389  211.00000  16.99026             15.87053
267.84783   626.16848   184.00000  18.26991             12.83655
272.07600   410.67200   250.00000  22.23999             14.44053
271.77232   1537.24554  224.00000  19.87910             14.40333
271.52000   658.34500   200.00000  16.99289             15.02434
270.85556   1364.46111  180.00000  17.52535             13.25869
273.17308   1589.05288  208.00000  20.73159             12.91630
278.66667   911.74583   240.00000  19.53174             15.69394
283.00356   1508.41637  281.00000  26.71182             13.86885
284.35912   1317.52486  181.00000  19.52737             11.82239
283.87978   1284.57923  183.00000  19.97873             11.71868
285.01732   1180.01732  231.00000  19.19533             15.34190
288.85496   700.38931   262.00000  25.63995             13.14101
287.60000   780.98788   165.00000  18.41081             12.43288
286.87879   1204.65455  165.00000  16.53515             12.73824
288.39922   1403.76744  258.00000  22.47053             14.68219
286.20000   718.75484   155.00000  19.95404             10.55014
288.06341   749.70244   205.00000  24.83674             11.05360
289.98394   1005.53012  249.00000  19.61958             16.30930
291.91566   644.69478   249.00000  21.02554             15.15069
291.81006   811.18994   179.00000  17.55474             13.08483
292.11905   931.28095   210.00000  17.82000             15.12003
292.18391   1612.44253  174.00000  16.73765             13.31638
294.51562   1141.73828  256.00000  21.22876             15.48959
295.24424   604.41935   217.00000  17.90696             15.45609
296.13876   1691.04785  209.00000  18.55782             14.38199
300.51471   393.84559   272.00000  22.19792             15.65951
299.06044   1259.80220  182.00000  19.79972             11.97757
297.26752   756.25478   157.00000  16.28487             12.63430
301.84874   1374.80672  238.00000  21.57224             14.63830
303.11834   900.04142   169.00000  18.39369             12.11681
298.87500   1065.51087  184.00000  22.86505             10.41648
303.31973   1084.11565  147.00000  17.15388             10.98933
304.92991   1172.61215  214.00000  19.02263             14.48137
307.87634   1352.29032  186.00000  19.63629             12.27661
310.53030   1413.44949  198.00000  20.51627             12.45424
312.35065   720.70996   231.00000  19.14561             15.59673
310.85427   768.24121   199.00000  17.48993             14.86040
312.19476   790.32210   267.00000  21.39984             15.92507
314.06395   1682.30233  172.00000  16.11218             13.78185
317.74545   1386.44848  165.00000  17.80955             11.92787
316.10569   1603.67480  123.00000  13.54537             11.72108
318.46154   747.77885   208.00000  19.17081             14.24985
319.20000   547.50732   205.00000  19.26814             13.75253
316.49383   757.96296   81.00000   11.52520             9.05056
319.75000   1287.12500  208.00000  22.23763             12.25715
319.76000   867.41143   175.00000  20.92018             10.77332
323.27344   1128.48438  128.00000  16.05727             10.19014
323.86127   1260.69942  173.00000  17.82962             12.43451
329.52973   1217.95135  185.00000  25.95019             9.29200
327.06763   367.35266   207.00000  17.37520             15.22903
325.37179   1011.41667  156.00000  15.87747             12.65898
325.71000   1039.91000  100.00000  16.79783             7.74840
328.47500   563.10000   160.00000  17.33171             11.90133
330.58511   1486.06383  188.00000  22.74674             10.78713
325.75000   1230.50000  92.00000   12.02184             9.82661
330.47514   1190.00552  181.00000  18.25657             12.61289
330.72115   626.60096   208.00000  19.98855             13.35221
331.66667   718.52511   219.00000  18.73566             15.09936
329.60256   1246.89744  156.00000  17.39796             11.46902
333.62500   863.69118   136.00000  18.19817             9.82154
328.64835   1497.78022  91.00000   10.93616             10.64206
331.06897   644.00862   116.00000  13.08990             11.27821
332.56291   678.48344   151.00000  15.22296             12.69856
336.49362   976.18723   235.00000  18.11474             16.66468
336.59172   1393.27811  169.00000  18.39864             11.86610
337.05856   1544.90090  222.00000  17.83106             15.96516
337.29474   793.84737   190.00000  19.15919             12.74547
337.84324   879.72973   185.00000  15.93923             15.27940
335.65873   1405.24603  126.00000  13.43329             12.11914
338.30409   1591.36842  171.00000  15.07623             14.45391
342.65241   1054.85561  187.00000  19.96467             12.60511
342.75185   462.10370   270.00000  21.82080             15.85954
342.60544   927.07483   147.00000  15.87923             11.94392
341.65649   834.80916   131.00000  14.70446             11.56706
344.99592   1366.79592  245.00000  20.63832             15.27881
342.75740   645.14793   169.00000  17.52745             12.29781
345.11675   699.32487   197.00000  22.47231             11.31246
356.19565   314.26522   230.00000  24.66923             13.29482
352.67978   912.03371   178.00000  16.53119             13.96079
355.64943   1089.35057  174.00000  21.41456             10.67874
355.34884   850.54651   172.00000  17.18837             13.16696
355.38961   1009.94805  154.00000  17.74038             11.14260
354.97753   1596.90449  178.00000  18.14430             12.53046
363.50552   1177.19061  362.00000  25.93436             17.94400
360.07229   1305.43373  166.00000  19.04218             11.69031
360.13115   1404.12705  244.00000  20.82735             15.09693
361.74879   696.95652   207.00000  18.69847             14.38242
361.26667   1242.71667  120.00000  13.39178             11.52843
367.78014   748.62411   141.00000  20.30025             9.11162
366.46939   906.14966   294.00000  27.02190             14.32286
367.16959   992.95906   171.00000  19.92438             11.00372
364.83060   1673.68852  183.00000  17.16737             13.74284
363.55556   1261.46914  81.00000   11.25573             9.16027
368.08511   525.70213   235.00000  21.30784             14.12641
368.72398   1418.52036  221.00000  19.63929             14.36894
369.56522   648.95652   230.00000  18.42909             16.04751
367.81707   943.21341   164.00000  16.91562             12.55282
367.10714   809.73214   112.00000  12.20003             11.80069
369.16129   1119.91935  186.00000  17.89236             13.32267
369.48193   345.39759   166.00000  16.50809             12.89752
367.96825   965.25397   63.00000   11.70295             6.99382
371.80488   496.91057   246.00000  19.41300             16.23080
367.74359   1069.51282  78.00000   11.86697             8.42265
371.58794   1013.00000  199.00000  20.00490             13.08887
373.36686   1268.57396  169.00000  24.36901             10.79142
376.52921   608.56357   291.00000  21.40815             17.60441
376.66667   1070.09179  207.00000  21.00301             13.07041
374.77612   1289.25373  134.00000  17.66405             9.86778
377.45783   1494.37349  166.00000  20.08937             11.16310
379.95954   730.57225   173.00000  19.04243             11.73226
377.50685   774.21918   146.00000  14.63828             12.73624
380.82418   1134.26374  182.00000  18.48572             12.59558
379.75333   806.37333   150.00000  14.85113             12.89653
379.82051   1208.21026  195.00000  19.24669             12.99600
383.75099   567.85375   253.00000  20.82769             15.51754
383.86127   1052.82081  173.00000  16.56792             13.32607
383.26131   1524.70854  199.00000  20.52789             12.70751
388.84906   334.63396   265.00000  19.66630             17.42987
386.92000   1325.43273  275.00000  26.05710             13.48163
387.24638   1366.30918  207.00000  16.94224             15.63613
389.21631   501.67021   282.00000  24.31343             14.98413
385.77236   783.78049   123.00000  14.79372             10.73711
387.35912   692.24862   181.00000  17.77430             13.27503
386.70690   752.12931   116.00000  13.91651             10.75747
385.26190   794.48810   84.00000   10.69475             10.29788
391.87845   1296.34807  181.00000  24.48298             10.22833
388.05952   1634.76190  84.00000   11.65362             9.32947
393.12712   669.79237   236.00000  19.82209             15.23046
392.73295   740.20455   176.00000  16.82282             13.75105
391.00000   957.94853   136.00000  17.24048             10.37049
393.13333   1017.80556  180.00000  16.69535             13.96258
397.66667   1401.99275  138.00000  18.98561             10.85744
401.60000   637.45238   210.00000  24.31038             11.39965
403.76210   829.12903   248.00000  21.34623             15.88280
400.65833   1008.27500  120.00000  13.75396             11.18410
400.16923   1559.76154  130.00000  13.21459             12.79930
403.05159   618.26984   252.00000  22.71388             14.46668
404.17197   773.42675   157.00000  16.26706             12.42232
411.51363   483.24528   477.00000  31.40938             19.71705
403.88696   1274.53913  115.00000  14.15683             10.38806
403.56818   1466.26515  132.00000  14.99892             11.33577
406.34807   1676.65193  181.00000  18.86643             12.44319
408.77852   1219.75839  298.00000  23.92902             16.10927
407.87037   958.57407   108.00000  16.71336             8.31840
408.14737   1344.12632  190.00000  18.46627             13.14352
410.94937   1651.70886  237.00000  20.37370             14.87573
410.38255   1072.13423  149.00000  17.10351             11.14311
412.98800   1453.19600  250.00000  18.82303             17.19967
411.05000   811.16000   100.00000  13.08572             9.78133
416.89720   325.15421   214.00000  19.85666             13.79167
415.12883   1140.71779  163.00000  17.25965             12.06323
417.34459   1474.16216  148.00000  18.33770             10.59844
416.75740   1529.01775  169.00000  16.04335             13.81990
416.19149   961.81915   94.00000   13.55481             8.93520
419.55155   788.76289   194.00000  19.19539             12.87998
416.65680   1324.93491  169.00000  18.34911             11.78944
419.70000   1193.64706  170.00000  17.51499             12.37470
420.20312   1309.43229  192.00000  18.89286             13.13683
421.67320   1254.97386  153.00000  15.08878             12.92896
423.15000   805.86429   140.00000  14.74912             12.59853
423.77073   868.35122   205.00000  19.24434             13.88425
422.37681   990.94686   207.00000  18.78843             14.38201
423.50000   1008.05435  184.00000  16.93612             13.87800
425.68067   691.49580   238.00000  18.25804             16.75239
427.87245   1270.86735  196.00000  22.74995             11.80886
425.31285   1370.00559  179.00000  20.99459             10.99449
425.55263   950.40351   114.00000  14.46244             10.11750
427.72500   1127.42500  320.00000  26.48616             15.66790
425.63750   1167.56250  160.00000  17.35719             11.82214
428.03727   898.01863   161.00000  16.08059             12.80802
428.73558   1484.47115  208.00000  19.85852             13.74939
431.01026   1044.27692  195.00000  16.97765             14.75154
431.76077   742.93780   209.00000  18.06420             15.33482
432.07429   1639.69714  175.00000  15.33202             14.63895
431.81633   666.66327   98.00000   12.22081             10.64318
432.33684   877.05263   95.00000   13.29995             9.24684
433.45578   960.59864   147.00000  15.53237             12.07349
433.14394   1016.96970  132.00000  15.17127             11.09334
437.77720   760.95337   193.00000  16.21557             15.26886
436.43684   1066.40526  190.00000  17.10002             14.29365
435.92913   1257.66142  127.00000  12.81505             12.69516
443.12774   305.27737   274.00000  19.74390             18.04416
440.61078   1232.64072  167.00000  17.31559             12.42240
443.33462   659.17692   260.00000  19.59196             16.99642
442.28452   1353.33473  239.00000  20.02404             15.55124
444.16706   444.62118   425.00000  28.06341             19.40646
444.28505   709.32710   214.00000  24.45247             11.19910
445.89888   797.11798   178.00000  19.64029             11.73235
440.95522   1406.74627  67.00000   9.69071              9.01481
445.30263   1141.11842  228.00000  20.06480             14.66090
444.41818   745.30303   165.00000  19.67896             10.96267
453.16615   1213.69231  325.00000  22.48020             19.32924
446.12195   1273.52033  123.00000  15.75569             10.13414
448.68224   1125.66355  107.00000  12.26244             11.12378
453.93750   1030.06771  192.00000  18.56406             13.20315
454.15242   406.49814   269.00000  22.26022             15.40746
454.89130   949.97101   276.00000  23.89342             14.87447
459.34241   425.97665   257.00000  22.20603             14.94412
455.44966   863.55705   149.00000  17.12474             11.20251
457.21333   1479.86000  150.00000  17.61586             10.89097
463.02500   332.12187   320.00000  24.94976             16.46851
463.52542   846.65537   177.00000  22.96142             9.83325
461.21809   1060.97872  188.00000  15.65611             15.30925
459.32584   1269.62360  178.00000  18.45131             12.42458
465.37705   834.67213   183.00000  20.12556             11.86697
465.50235   1014.17371  213.00000  24.31236             11.36315
463.30392   1232.79902  204.00000  16.70986             15.61263
465.93194   891.19372   191.00000  20.08381             12.24819
462.31169   917.71429   154.00000  16.98352             11.61385
463.41176   1529.40336  119.00000  14.77825             10.32667
468.35088   297.52193   228.00000  19.69920             14.81817
466.94294   1289.32132  333.00000  30.86408             14.37502
468.60452   1138.18079  177.00000  19.26609             11.90672
463.77778   1423.96296  27.00000   6.30783              5.46971
469.22388   961.10448   67.00000   10.63546             8.18078
473.56790   349.95062   243.00000  20.90710             14.84399
474.13913   801.46087   230.00000  22.38269             13.20089
468.85714   859.06349   63.00000   13.75183             6.02279
471.30597   923.29851   134.00000  15.76526             10.89961
470.00000   1443.43333  30.00000   6.61898              5.80671
480.92655   975.19492   354.00000  28.39724             16.32989
476.19742   1083.35622  233.00000  24.33401             12.43904
477.58264   1251.19421  242.00000  18.56429             16.97474
479.40714   1133.36429  140.00000  17.27699             11.09125
478.71345   1564.19298  171.00000  16.76791             13.03047
483.21757   1193.78243  239.00000  19.04319             16.20453
477.44444   1431.00000  45.00000   7.94239              7.24662
481.50481   1638.80288  208.00000  16.48223             16.11326
483.32692   619.81731   208.00000  17.84234             15.19182
485.03465   1003.99010  202.00000  20.35777             13.09962
483.81081   1109.30811  185.00000  17.17648             14.01933
484.99248   1172.74436  133.00000  19.69647             9.18619
485.23952   725.13174   167.00000  18.44650             11.65540
483.52206   866.52941   136.00000  16.05472             10.90552
485.58015   1066.95420  131.00000  15.52456             10.90891
491.24675   922.82251   231.00000  25.27674             11.98078
486.65909   840.80114   176.00000  18.71399             12.09521
487.80583   853.93204   103.00000  13.13986             10.16500
491.32340   1293.33617  235.00000  19.47046             15.61635
489.27692   1018.68462  130.00000  15.09802             11.01610
488.38889   1354.16667  72.00000   10.11618             9.05041
492.28324   992.14451   173.00000  17.61090             12.60179
489.98182   1339.52727  55.00000   8.83066              8.01150
495.71713   374.15936   251.00000  20.04491             16.05435
492.73913   1119.02174  92.00000   12.46309             9.47818
495.88690   601.85714   168.00000  16.43383             13.35123
496.07177   908.03828   209.00000  17.79729             15.84169
493.44860   1532.25234  107.00000  12.15414             11.43699
495.85890   687.30061   163.00000  15.32121             13.57232
496.85149   809.35149   202.00000  19.65227             13.26550
496.61379   1319.93103  145.00000  16.76005             11.17649
496.51643   355.32394   213.00000  19.62897             13.87423
494.68000   1038.05600  125.00000  15.46136             10.38277
494.62000   1184.84000  100.00000  13.16998             9.75663
501.55238   1175.85714  105.00000  12.87763             10.53638
498.44737   1463.60526  38.00000   8.15568              5.89380
501.17582   1109.12088  91.00000   13.03930             9.01134
510.15827   1243.80576  278.00000  28.28814             12.78655
504.10687   1400.87023  131.00000  16.16722             10.46846
507.49206   344.92063   252.00000  21.21270             15.56600
503.52027   726.87162   148.00000  20.36342             9.40278
507.73500   702.13000   200.00000  17.82216             14.39779
509.47500   1137.72500  240.00000  17.92312             17.44921
508.36318   966.79104   201.00000  19.49361             13.13672
509.78049   1068.42073  164.00000  17.54240             11.95837
509.77852   1473.12752  149.00000  15.49922             12.29248
512.40625   720.60547   256.00000  24.05217             13.67204
513.71489   1561.74468  235.00000  20.44350             14.72848
513.89163   882.64039   203.00000  19.44173             13.61174
511.50893   1361.20536  112.00000  13.24479             10.86473
514.93249   1610.89451  237.00000  18.21564             16.71071
516.78378   452.04505   222.00000  20.61631             13.79868
518.53608   1656.50515  194.00000  17.37924             14.25694
520.51362   769.62257   257.00000  18.91480             17.50493
521.27823   558.04435   248.00000  18.80426             16.87050
521.71937   920.77866   253.00000  19.37122             17.31208
522.10648   1275.01852  216.00000  19.40086             14.31695
516.70732   1006.82927  41.00000   8.19429              6.49893
524.93728   471.08362   287.00000  22.37547             16.59562
522.22330   875.50485   103.00000  12.96572             10.25807
525.89952   962.34928   209.00000  17.43401             15.57846
531.01489   1019.22979  470.00000  34.26095             18.88224
525.14054   1497.28649  185.00000  17.97183             13.17698
526.16733   1039.81673  251.00000  20.40934             16.01603
527.15723   1188.71069  159.00000  15.74873             12.90522
529.86500   1372.25500  200.00000  18.58798             13.77081
531.22667   1451.20444  225.00000  20.51788             14.04490
532.63462   792.20769   260.00000  21.24838             15.90413
535.75000   1214.07955  264.00000  21.56851             16.03598
533.88261   1324.42174  230.00000  18.08046             16.26026
534.92143   996.10000   140.00000  17.33460             11.17888
536.41096   1614.74886  219.00000  19.82522             14.25271
536.02186   1143.15301  183.00000  19.97749             11.77911
536.97455   865.65818   275.00000  21.97476             16.60145
537.06667   984.46667   210.00000  18.72618             14.67565
537.53659   1165.73171  246.00000  21.63705             14.52885
539.14486   1261.66355  214.00000  19.41561             14.58296
539.87500   514.87500   192.00000  18.35971             13.46307
539.69399   842.98907   183.00000  17.04796             13.80814
536.68919   1275.28378  74.00000   10.06699             9.39436
540.41892   774.33784   74.00000   13.34971             7.35692
543.73469   783.10714   196.00000  20.97540             12.33331
540.49129   1640.27875  287.00000  26.30965             14.04250
539.51149   1297.32759  174.00000  18.01815             12.42613
547.26538   941.28846   260.00000  19.10555             17.89275
547.65405   905.61081   185.00000  16.27966             14.59051
546.67785   558.48993   149.00000  15.79969             12.20448
549.23755   1362.42146  261.00000  28.20933             13.13875
549.39080   1667.35057  174.00000  17.27133             12.90474
554.45106   1303.86809  235.00000  23.81267             12.66699
552.27358   539.04245   212.00000  17.89373             15.10789
552.71972   837.53633   289.00000  25.04811             14.93259
550.54202   1425.33193  238.00000  22.98992             13.31172
553.53514   966.18919   185.00000  16.98529             14.10575
557.64088   983.04420   181.00000  16.86113             13.73204
559.32558   556.08837   215.00000  19.18262             14.31056
555.11864   913.47458   59.00000   9.62894              7.84579
558.46053   1609.94737  228.00000  22.66580             13.40657
559.19186   1190.52326  172.00000  19.46877             11.62584
560.74860   1653.18436  179.00000  17.71824             12.94403
561.45238   1147.15714  210.00000  20.97507             12.89208
564.21212   581.31818   198.00000  20.31282             12.47540
560.75472   946.00000   53.00000   9.38391              7.16638
563.79070   961.39535   129.00000  19.14632             8.87202
565.58857   883.96000   175.00000  15.17076             14.92935
568.78652   1206.85955  178.00000  17.87653             12.93078
566.82022   1279.45693  267.00000  28.00624             12.66046
572.23810   936.04762   231.00000  21.12313             14.37304
573.72125   1421.75610  287.00000  24.37782             15.45547
576.44403   513.44776   268.00000  24.54417             14.74957
573.68610   957.50224   223.00000  20.11542             14.60817
573.81771   1623.76042  192.00000  19.71689             12.45167
575.85232   894.20675   237.00000  18.41689             16.60577
579.45732   920.43902   164.00000  16.53486             12.65962
581.40310   1135.11628  129.00000  16.04088             10.26613
581.44706   990.57059   170.00000  17.34317             12.55137
584.23392   1102.69006  171.00000  15.83669             13.87255
583.45000   634.69444   180.00000  19.09946             12.09909
587.60000   1222.55128  390.00000  28.35024             17.58205
585.02083   1115.06250  144.00000  13.98646             13.31993
588.16450   1151.43723  231.00000  20.81441             14.30816
591.91873   624.85512   283.00000  26.19668             13.99012
590.91923   1396.14231  260.00000  20.84649             16.56535
592.72603   1554.78082  292.00000  22.07482             17.03320
593.08257   891.31193   218.00000  25.22001             11.31739
589.62162   909.18919   37.00000   7.46742              6.35619
597.29775   992.19382   356.00000  24.29382             18.93851
594.97561   1248.15122  205.00000  18.99519             13.86265
600.52896   500.40154   259.00000  20.83476             16.08853
601.22901   1343.32824  262.00000  27.50553             12.93897
602.69333   953.12000   225.00000  20.09802             14.31414
601.65421   1043.95327  107.00000  14.36782             9.53846
604.88827   1268.47486  179.00000  18.25500             12.64989
610.27244   1051.95192  312.00000  24.19972             18.24675
606.95399   1101.42025  326.00000  26.85293             15.58312
615.93782   752.67617   386.00000  34.47949             15.94339
609.97967   896.40650   246.00000  22.17646             14.94249
612.73478   1488.57391  230.00000  20.44075             15.10737
615.02825   1647.74011  177.00000  16.88033             13.56864
616.72549   1290.98039  204.00000  19.65720             13.36041
621.15636   1024.06545  275.00000  20.57493             17.35893
620.70213   665.75745   235.00000  20.81691             14.50361
623.24555   924.83630   281.00000  24.89163             14.54783
625.53242   478.67918   293.00000  20.31002             18.50809
627.52101   943.64706   238.00000  19.57599             15.57709
626.72381   980.11111   315.00000  28.61426             14.19400
630.31148   1229.09180  305.00000  23.12934             16.86365
628.29143   1139.05143  175.00000  17.28727             12.89963
630.94922   1206.61719  256.00000  19.27773             16.93135
632.18750   1169.16176  272.00000  20.73578             17.35576
632.04184   1272.26778  239.00000  20.21375             15.30509
633.63200   695.82000   250.00000  19.46079             16.62675
631.72195   1085.69268  205.00000  21.19593             12.57656
641.89069   1256.77733  247.00000  29.06827             11.28120
642.11814   1431.22363  237.00000  25.09096             12.48941
650.75836   901.28253   269.00000  27.05623             12.74376
652.39918   1034.54321  243.00000  22.02910             14.28773
654.30216   445.88489   278.00000  19.69397             18.48663
653.69955   926.70404   223.00000  19.36697             14.79223
649.88000   1024.64000  25.00000   7.36292              4.35930
653.04926   1122.05911  203.00000  19.13606             14.22903
655.50226   1005.10860  221.00000  17.30948             16.28739
656.23611   941.27778   144.00000  15.76990             11.73150
660.96708   1168.87654  243.00000  18.29481             17.53684
663.24352   723.94819   193.00000  19.04181             13.39179
667.93704   427.57778   270.00000  21.22718             16.72086
664.90045   1217.14480  221.00000  20.52738             13.96300
668.63851   1401.42568  296.00000  21.64281             17.79322
667.76471   1116.27731  238.00000  21.29664             14.83582
668.13568   740.14070   199.00000  19.59682             13.18735
670.89457   979.84665   313.00000  23.58589             17.32774
674.72624   1095.46768  263.00000  24.40314             14.85036
671.95349   1444.70930  172.00000  17.31968             12.69463
675.43439   1281.22172  221.00000  22.77288             12.74381
678.29688   1312.04297  256.00000  23.30074             14.10047
676.80000   1253.05660  265.00000  24.86768             14.19705
679.98515   1231.76733  202.00000  20.15094             13.13603
674.43478   1149.95652  46.00000   9.41618              6.25006
681.77959   1054.31837  245.00000  21.42319             14.60343
683.09013   1004.76395  233.00000  20.15332             14.87568
683.47660   1199.98298  235.00000  20.69074             14.58121
683.46725   1352.50655  229.00000  20.31505             14.80106
684.75281   1415.02247  267.00000  24.08508             14.24721
685.26054   953.37548   261.00000  29.78044             11.22216
689.36531   1043.48708  271.00000  25.55006             14.40305
696.21382   405.03947   304.00000  23.44631             16.78936
696.20727   774.35636   275.00000  20.48840             17.38612
696.66255   926.20988   243.00000  21.13199             14.69690
694.90698   946.22481   129.00000  13.97764             11.79756
700.17623   1381.79918  244.00000  20.04441             16.06434
702.62981   959.44231   208.00000  18.75728             14.25035
706.63713   986.84810   237.00000  18.90416             16.18839
712.11450   1340.96183  262.00000  29.42175             12.32470
722.36675   883.21372   379.00000  35.19464             14.28380
719.76549   940.42920   226.00000  19.24715             15.19966
720.81967   1288.28852  305.00000  27.45590             14.79721
723.35521   807.47490   259.00000  23.12760             14.32862
724.38053   1023.10619  226.00000  19.95940             14.52892
722.71123   1734.22460  187.00000  18.92554             12.67881
724.36607   979.80357   224.00000  17.60670             16.28627
725.34314   911.60784   204.00000  17.84551             14.70819
727.07237   1070.76645  304.00000  24.84463             15.90923
727.44939   1241.11741  247.00000  22.30464             14.54655
728.91403   1607.65158  221.00000  20.21056             14.09879
731.57642   1372.81659  229.00000  18.07575             16.23807
734.81308   1586.37383  214.00000  17.25067             15.88842
736.15289   1109.86364  242.00000  19.96836             15.56213
735.42328   1187.40741  189.00000  17.32529             14.17669
738.24214   1157.93711  318.00000  21.34171             19.09481
739.74672   921.80349   229.00000  19.59528             15.09637
739.21154   951.76442   208.00000  17.77261             15.00230
740.53073   987.76536   179.00000  17.02039             13.57546
740.27313   1349.37885  227.00000  18.32531             15.81853
739.10244   1556.59024  205.00000  18.53383             14.10012
747.71154   396.74519   208.00000  19.96529             13.35959
747.99156   1514.52743  237.00000  23.16219             13.18825
752.04545   814.14545   220.00000  23.42591             11.97955
751.09738   1315.95131  267.00000  21.41921             15.91721
755.38811   888.05245   286.00000  25.28297             14.78598
756.20219   837.87432   183.00000  20.90849             11.15634
756.95946   955.12162   222.00000  19.72415             14.49298
755.15116   1090.67054  258.00000  25.21089             13.31602
757.29688   1006.91146  192.00000  17.30918             14.37672
759.04808   1478.82212  208.00000  17.53713             15.16518
758.72432   1500.01622  185.00000  16.25674             14.62211
759.82379   1758.79736  227.00000  19.52329             14.89094
760.70383   1064.42160  287.00000  25.34734             14.69066
760.44762   1260.10000  210.00000  21.59811             12.49243
763.89899   938.05051   198.00000  19.56319             12.95629
764.58238   1448.26820  261.00000  20.15662             16.64801
769.33835   1420.35589  399.00000  26.47157             19.39019
770.22925   1241.81423  253.00000  26.24872             12.44304
772.57522   399.66814   226.00000  18.17985             16.06386
771.50820   1011.34836  244.00000  20.20581             15.52192
780.24000   1122.99000  300.00000  24.76145             15.67251
779.56863   1366.57843  306.00000  27.39490             14.29244
782.36576   1461.50195  257.00000  23.26739             14.18080
785.35484   955.35081   248.00000  25.64872             12.38750
782.58257   1171.06422  218.00000  21.70525             13.25303
786.55251   1032.77169  219.00000  19.42003             14.39091
789.70714   1184.79286  140.00000  14.90934             12.10885
794.50249   977.09950   201.00000  19.72980             13.06430
795.70130   1162.01623  308.00000  24.69253             15.95824
795.19600   1331.20400  250.00000  18.35375             17.78908
795.29293   1422.60101  198.00000  16.18557             15.65429
796.85572   396.91542   201.00000  19.60930             13.35854
800.36508   1197.11508  252.00000  22.28054             14.48682
804.48889   845.38148   270.00000  23.91445             14.51710
802.21662   935.44807   337.00000  30.85471             14.12241
804.81860   1010.03256  215.00000  21.20602             13.08837
802.20207   1376.03627  193.00000  17.19520             14.42304
811.68729   1088.13746  291.00000  21.06483             17.86203
814.82212   1352.88462  208.00000  17.29703             15.65546
815.77889   1294.05528  199.00000  17.72549             14.39958
816.34572   1226.60223  269.00000  23.74628             14.53713
818.09053   1319.71605  243.00000  18.84084             16.46285
819.87940   402.96985   199.00000  19.95477             13.10001
820.92771   1256.35743  249.00000  20.61347             15.44655
822.88704   1000.17276  301.00000  32.74100             12.11833
828.40569   1283.40569  281.00000  21.62121             16.68880
832.90588   883.83529   170.00000  20.03747             10.98424
835.48148   1767.51235  162.00000  17.43225             12.09061
842.85388   1026.86758  219.00000  21.63075             12.93538
841.85714   1726.47755  245.00000  20.83106             15.13699
846.59643   96.70357    280.00000  21.91455             16.35580
849.27586   35.93966    232.00000  19.08695             15.63149
850.31579   122.30451   266.00000  21.99135             15.56869
865.16990   903.91748   206.00000  26.22113             10.60674
862.11364   395.90909   176.00000  16.64918             13.55503
867.83142   1249.13793  261.00000  21.70566             15.52596
864.41860   1027.70930  86.00000   12.60595             8.86615
866.16327   1039.15306  98.00000   12.59180             9.97100
873.89076   1029.62185  119.00000  14.14588             11.00817
880.21474   929.60256   312.00000  23.16963             19.99373
881.48193   1009.18072  249.00000  20.86986             15.51633
877.86275   1038.99020  102.00000  13.37333             9.74117
885.23182   1761.32273  220.00000  20.59724             13.71363
885.38636   1241.17045  88.00000   12.09584             9.28935
891.18868   1678.57358  265.00000  20.06675             17.02754
892.96167   205.57143   287.00000  26.92156             13.71954
893.92529   1029.94828  174.00000  19.05517             11.75166
898.78674   111.11816   347.00000  22.94704             19.39068
895.20652   401.67391   184.00000  17.65344             13.43805
894.92857   926.85204   196.00000  20.66530             12.25674
899.37455   48.07273    275.00000  20.57979             17.10985
899.60930   133.56279   215.00000  17.93973             15.51699
905.46341   1233.66551  287.00000  24.93373             15.08844
912.37621   250.76206   311.00000  25.12861             15.91234
912.75794   1649.29762  252.00000  21.62433             14.89014
917.31304   521.47826   230.00000  19.04957             15.44329
917.28283   976.81818   198.00000  17.35680             14.90588
921.65490   546.28627   255.00000  20.23047             16.60987
916.32836   345.13433   67.00000   10.91176             7.81848
921.11340   363.94845   97.00000   13.31726             9.34395
922.78571   336.23810   126.00000  15.95598             10.07370
928.02740   195.14155   219.00000  20.59611             13.63908
930.64528   285.24906   265.00000  23.70255             14.36815
930.15132   357.30921   152.00000  15.15693             12.82074
939.12548   1204.28897  263.00000  24.84918             14.14546
937.88265   578.03061   196.00000  20.39053             12.36483
935.49123   1765.46784  171.00000  17.64651             12.41477
935.88333   325.48333   120.00000  15.32289             9.95591
941.21759   398.94444   216.00000  20.11947             14.08282
939.72277   1602.29703  202.00000  18.77498             13.97691
953.48387   246.86738   279.00000  19.91436             18.05190
949.95506   308.47191   178.00000  17.79102             12.99511
956.01242   1769.87578  161.00000  20.06091             10.54036
958.50769   601.44923   325.00000  26.48616             15.80509
958.24911   1568.15302  281.00000  22.49519             16.10599
959.01527   319.11450   131.00000  13.98338             11.93524
967.82550   1196.94631  298.00000  25.47489             15.41724
968.92887   263.62762   239.00000  21.48498             14.25279
968.40154   337.40154   259.00000  22.09447             14.95486
971.54464   297.87500   224.00000  24.48755             12.18632
970.96875   1265.40625  32.00000   7.12982              5.70170
975.10383   1477.84153  183.00000  16.49181             14.17043
977.62814   374.84422   199.00000  19.23452             13.26708
982.30052   1461.16062  193.00000  16.56697             14.94408
983.28807   661.35391   243.00000  23.04803             13.46997
977.40000   772.77143   35.00000   7.54165              5.90028
989.26471   1538.54779  272.00000  32.19003             11.32657
994.40893   689.70447   291.00000  23.71960             16.27982
991.67059   1199.15294  85.00000   11.52966             9.40169
993.25000   1447.15957  188.00000  19.87830             12.24394
994.24427   1963.09160  131.00000  14.91027             11.43649
998.85235   268.87248   149.00000  15.83009             12.02098
1000.44444  1943.54630  108.00000  14.43180             9.76438
1005.95872  335.37615   218.00000  22.33204             12.45829
1010.28571  1189.18929  280.00000  21.00112             17.40573
1010.81992  721.81992   261.00000  19.40896             17.33869
1011.72973  393.55856   222.00000  20.92139             13.57097
1009.70588  267.01681   119.00000  12.98949             12.01549
1011.61780  355.67539   191.00000  18.79820             13.30934
1018.05612  612.37245   196.00000  16.63842             15.09410
1015.23333  1925.33333  150.00000  16.35254             11.71775
1021.83562  1245.30137  292.00000  25.41466             14.81544
1020.82111  1569.41935  341.00000  33.38632             13.21374
1020.47929  1869.44970  169.00000  18.12518             11.98020
1026.48302  413.52075   265.00000  24.82548             13.71355
1025.58537  308.28862   246.00000  21.54984             14.57949
1026.09009  330.65766   222.00000  19.10466             15.17697
1023.94475  1813.80110  181.00000  18.05307             12.82054
1024.58580  1849.14201  169.00000  17.55111             12.34575
1027.53125  355.10268   224.00000  17.49068             16.46096
1029.24188  1613.76534  277.00000  21.08073             16.80110
1028.83007  1741.62092  153.00000  16.63582             11.78086
1027.35294  217.87255   102.00000  14.67948             8.95223
1030.46122  1779.82857  245.00000  21.73626             14.53959
1030.53254  239.79290   169.00000  15.01825             14.47617
1031.52318  1422.87417  151.00000  16.35383             11.84554
1033.64384  1477.42466  146.00000  17.12087             11.06093
1034.56725  226.46784   171.00000  15.89272             13.71085
1034.38710  1553.61290  155.00000  15.64899             12.77565
1042.21127  1562.36620  142.00000  15.28280             11.97057
1052.72895  1204.82105  380.00000  33.53525             15.21129
1038.65854  213.17073   41.00000   8.47084              6.22041
1044.98206  1521.91928  223.00000  22.05878             13.08031
1046.05556  1540.82716  162.00000  17.15945             12.20559
1046.86325  1785.20513  234.00000  26.35327             11.95659
1044.17949  354.34615   78.00000   10.15793             9.82014
1052.89231  621.71538   260.00000  24.17238             13.96475
1047.68794  1725.19149  141.00000  15.18287             11.89384
1052.17157  398.69118   204.00000  17.92508             14.53557
1048.92982  1455.52632  57.00000   9.18025              7.99461
1051.30675  198.56442   163.00000  17.20630             12.14496
1057.67677  356.49495   99.00000   12.65880             10.08158
1057.90909  1522.28571  154.00000  19.94054             10.00268
1059.85116  1725.01860  215.00000  18.96453             14.59486
1058.73684  1421.95789  95.00000   11.19800             10.79351
1059.49462  172.47312   186.00000  22.64890             10.47497
1064.91584  785.33663   202.00000  19.61499             13.22236
1067.39894  1430.71809  188.00000  20.51692             11.89689
1068.23600  1485.94800  250.00000  24.75873             13.13404
1067.05143  1400.53143  175.00000  18.88277             12.04279
1069.83663  1669.05941  202.00000  18.33043             14.13608
1069.88652  1388.00709  141.00000  14.19279             12.68508
1073.12775  1802.14097  227.00000  18.84226             15.67463
1074.42857  415.26708   161.00000  15.70200             13.11964
1073.97619  1696.23810  210.00000  20.64720             13.11546
1076.20118  180.44970   169.00000  16.49232             13.22725
1076.21839  271.04215   261.00000  20.21775             16.56702
1077.16770  337.34161   161.00000  18.18215             11.28783
1076.39791  1583.86387  191.00000  17.98540             13.71281
1077.90909  624.06667   165.00000  17.31143             12.21781
1083.71500  1639.23000  200.00000  20.48885             12.46680
1081.56784  1379.21608  199.00000  18.65740             13.65495
1088.32197  423.67045   264.00000  25.65977             13.29837
1084.39908  1397.39908  218.00000  20.62483             13.64479
1086.75433  1458.49481  289.00000  20.82675             18.15447
1082.90722  1485.41237  97.00000   13.36501             9.42701
1084.03766  1670.08787  239.00000  20.93038             14.62727
1082.67123  1749.81507  146.00000  15.30277             12.20547
1086.87333  1577.61333  150.00000  15.36946             12.52880
1088.01961  323.59477   153.00000  15.94703             12.24585
1090.27132  839.96899   258.00000  21.14195             15.78769
1087.21429  1478.30952  84.00000   10.94376             10.13551
1089.25828  667.90066   151.00000  14.40687             13.34855
1093.69744  155.69744   195.00000  18.38248             13.56300
1096.25234  716.45483   321.00000  21.69257             18.94329
1092.19658  1530.17949  117.00000  13.06694             11.42879
1093.95652  1758.47826  161.00000  16.21924             12.72662
1095.30075  434.09774   133.00000  15.10030             11.28331
1095.91667  293.70455   132.00000  15.60600             10.80009
1098.06787  679.29412   221.00000  18.71908             15.33436
1094.43939  1483.77273  66.00000   9.68595              8.81941
1098.56522  385.11413   184.00000  17.36881             13.56002
1102.00699  761.37762   286.00000  22.25728             16.46215
1100.21875  1631.40104  192.00000  20.05740             12.23841
1103.71250  303.51250   160.00000  18.17159             11.32556
1109.31323  1236.35731  431.00000  31.76019             17.70244
1101.98643  1586.66063  221.00000  21.52682             13.23027
1103.02778  610.96111   180.00000  15.34537             14.94415
1104.10345  1455.02956  203.00000  17.33075             15.08177
1105.14070  458.84925   199.00000  18.15528             14.43603
1104.55882  1528.46471  170.00000  15.08728             14.36884
1106.59627  691.52174   161.00000  16.33620             12.57638
1106.00474  1546.30806  211.00000  17.46019             15.48864
1105.32018  1486.58333  228.00000  22.73778             12.87374
1108.84000  332.41714   175.00000  15.98873             13.98125
1106.58182  1029.60000  55.00000   9.26750              7.61524
1111.48860  843.09772   307.00000  24.10088             16.72723
1106.97436  1038.25641  39.00000   7.38402              6.70273
1110.64912  108.05848   171.00000  17.64838             12.55100
1109.69048  275.70238   84.00000   12.11880             8.86372
1113.37563  1283.03046  197.00000  18.58953             13.65918
1111.96648  1304.35754  179.00000  15.74520             14.47914
1110.30472  1331.45064  233.00000  22.34552             13.66092
1110.26761  1402.86854  213.00000  21.67970             12.55693
1114.01408  1425.81690  71.00000   9.64218              9.41134
1118.58571  1511.63429  350.00000  27.44277             16.61385
1115.68085  462.44681   94.00000   12.07283             9.93048
1117.06383  285.29787   141.00000  16.80890             10.72698
1119.44758  626.77419   248.00000  19.80629             16.11289
1121.13462  1369.18462  260.00000  25.30757             13.64097
1120.26000  105.39000   100.00000  15.86201             8.12412
1125.35567  1704.59278  194.00000  17.55836             14.10769
1125.38934  221.84836   244.00000  24.52256             12.70787
1127.30182  1678.43636  275.00000  21.88686             16.04390
1130.38750  190.52187   320.00000  21.23127             19.47109
1131.19397  615.93534   232.00000  22.62671             13.25289
1126.10345  452.17241   116.00000  14.00651             10.56336
1127.81034  464.84483   174.00000  15.51494             14.36405
1131.51327  1278.64602  226.00000  18.86121             15.26925
1129.41772  437.75949   158.00000  16.71646             12.10009
1131.88211  103.67073   246.00000  18.54408             16.99107
1129.59740  295.40260   77.00000   10.41516             9.41952
1133.13725  595.81569   255.00000  18.64190             17.46961
1135.08519  316.22963   270.00000  19.37326             17.81090
1134.51695  1717.06780  118.00000  14.54477             10.47185
1137.59296  475.81910   199.00000  19.02682             13.56582
1139.16733  1435.76494  251.00000  20.85002             15.44945
1139.41758  251.49084   273.00000  23.55696             15.45998
1138.07581  378.62816   277.00000  20.86450             17.19291
1135.88333  430.55000   60.00000   10.93115             6.98466
1139.90637  157.94382   267.00000  20.71407             16.53898
1145.00797  681.34263   251.00000  26.09904             12.42750
1139.34247  1452.91781  219.00000  18.32158             15.27396
1142.88205  266.03077   195.00000  18.70392             13.37574
1146.00000  1469.12865  342.00000  27.54059             16.24050
1142.70588  78.94118    102.00000  11.79225             11.00684
1149.97690  873.28053   303.00000  30.70567             13.24658
1146.94170  1328.86547  223.00000  19.73626             14.40795
1149.45382  1626.73092  249.00000  20.54620             15.55823
1146.72368  1262.18421  76.00000   11.74633             8.32537
1154.23235  1212.55294  340.00000  31.95930             13.94781
1152.07937  136.04365   252.00000  20.42886             15.75579
1152.82967  118.55495   182.00000  16.96561             13.80741
1155.01818  1432.41091  275.00000  25.04193             14.51514
1161.62824  914.47262   347.00000  26.09443             17.16252
1159.89041  359.55708   219.00000  20.43966             13.76925
1159.23507  960.90299   268.00000  23.38123             14.97610
1158.30357  206.22024   168.00000  16.85615             12.72794
1158.80903  533.78125   288.00000  26.08210             14.10821
1162.13621  617.05648   301.00000  20.26905             19.17450
1159.26119  70.39552    134.00000  13.48333             12.73996
1160.01899  237.38608   158.00000  21.52782             9.61988
1158.42453  1476.41509  106.00000  12.82590             10.65263
1161.25373  1233.47761  201.00000  16.25680             15.75471
1164.06007  646.28975   283.00000  20.11815             18.18536
1161.66667  55.60952    105.00000  14.98384             8.99473
1163.54902  219.26797   153.00000  14.32373             13.66629
1165.35417  1385.37083  240.00000  18.68906             16.55229
1169.06303  1638.18067  238.00000  22.02776             13.80198
1166.75833  82.06667    120.00000  14.50187             10.58412
1168.29384  1217.54028  211.00000  18.36264             16.22950
1171.71212  602.92929   198.00000  20.15080             12.73402
1169.70787  685.12921   178.00000  18.18439             12.70622
1172.14857  239.52000   175.00000  15.44612             14.57143
1166.05556  1257.83333  18.00000   5.27066              4.44144
1170.54762  59.73810    126.00000  14.73869             10.98856
1174.17600  902.37600   250.00000  21.95238             14.89186
1180.02787  1268.98258  287.00000  25.15487             16.37951
1173.93491  1314.91124  169.00000  17.42600             12.85140
1176.82162  430.89730   185.00000  16.92582             14.01682
1177.43796  591.98540   137.00000  14.05787             12.45155
1175.92157  1224.11765  51.00000   8.75949              7.56478
1177.06897  944.58621   58.00000   9.10311              8.12661
1181.32636  1210.40167  239.00000  18.54102             16.78997
1177.49020  75.86275    51.00000   9.30054              7.01965
1177.21739  1292.95652  46.00000   8.10324              7.19806
1185.39301  497.85153   229.00000  17.73414             16.54171
1182.17460  1136.61905  63.00000   9.10133              8.84113
1185.24265  563.98897   272.00000  27.39372             12.91576
1190.12500  1325.58984  256.00000  25.22490             13.23160
1192.35644  243.69802   202.00000  22.31133             12.71236
1193.38413  1163.05397  315.00000  22.97184             18.38896
1196.27600  1187.63600  250.00000  25.06092             13.32079
1194.71765  858.43824   340.00000  23.24808             18.73348
1195.99724  737.02762   362.00000  22.53479             21.22583
1191.61538  433.20513   39.00000   7.76588              6.42390
1197.01201  1274.75075  333.00000  24.41022             18.26985
1194.83582  1122.18408  201.00000  24.18707             10.82664
1194.54867  376.79646   113.00000  15.81240             9.29706
1203.09774  406.67669   266.00000  27.96119             12.68178
1199.67883  518.96715   274.00000  22.15755             15.91363
1198.75862  1394.78161  261.00000  20.52301             16.38543
1196.49495  40.88889    99.00000   13.08746             9.70449
1198.22018  948.69725   109.00000  15.37126             9.16393
1201.56957  273.62174   230.00000  20.58715             14.38335
1200.13462  219.46635   208.00000  21.60459             12.41010
1203.66977  322.01860   215.00000  23.51195             11.82530
1204.00328  548.77377   305.00000  22.65840             17.38233
1197.80000  1099.00000  50.00000   9.46730              6.69106
1205.13298  941.64894   188.00000  20.15570             12.00369
1205.67857  499.80102   196.00000  18.98286             13.17919
1207.67791  799.96933   326.00000  23.15996             17.98712
1204.95205  149.58219   146.00000  19.51104             9.55140
1211.83133  1146.81526  249.00000  28.50724             11.82837
1208.00472  1686.78302  212.00000  20.48113             13.44436
1208.28723  167.84574   188.00000  18.25278             13.22904
1206.44086  459.10753   186.00000  16.75176             14.24056
1206.62879  1114.57576  132.00000  15.65966             10.89868
1210.05861  677.63004   273.00000  19.43051             18.00747
1210.19271  1103.69271  192.00000  19.70761             13.44761
1210.36822  1072.53101  258.00000  19.73010             17.33425
1209.76562  1159.35938  128.00000  13.41048             12.23575
1216.48881  1213.11567  268.00000  20.07188             18.18008
1212.16216  215.25225   111.00000  14.81638             9.58274
1216.60556  618.56111   180.00000  16.70794             13.80120
1215.32787  422.19672   61.00000   9.76162              8.06192
1218.87946  1643.24554  224.00000  18.58513             15.45857
1218.83117  358.86364   154.00000  15.01504             13.16342
1220.70408  51.00000    98.00000   12.01327             10.46250
1221.62921  202.65730   178.00000  17.85275             12.88795
1222.30734  406.70642   218.00000  17.21292             16.18412
1223.47853  756.72393   326.00000  29.27874             14.46662
1223.84472  1168.17391  161.00000  16.52910             12.71595
1225.84810  426.19409   237.00000  21.59561             14.19215
1221.80189  1076.64151  106.00000  13.03486             10.40740
1228.71168  782.66423   274.00000  20.97280             16.85101
1231.52397  1293.12671  292.00000  24.87924             15.46860
1229.20346  521.57143   231.00000  17.64054             16.72642
1226.78689  955.91803   122.00000  13.59715             11.58807
1231.00472  1184.88679  212.00000  18.89263             14.58594
1224.93617  146.25532   47.00000   9.51079              6.49799
1230.63060  504.56343   268.00000  21.55622             15.97221
1230.00000  1221.06202  129.00000  15.02894             11.08353
1237.89869  967.79412   306.00000  28.45890             15.02308
1234.57706  386.74194   279.00000  21.69826             16.48666
1233.26389  127.46528   144.00000  20.32245             9.20617
1232.85315  353.93706   143.00000  17.07150             10.70201
1234.38503  587.02139   187.00000  19.44329             12.29175
1235.73469  241.80102   196.00000  16.67474             14.99216
1238.73516  338.52055   219.00000  24.39368             11.52652
1237.25359  463.82297   209.00000  23.90527             11.49259
1239.23729  568.45763   177.00000  15.78553             14.44845
1236.72727  1016.94545  55.00000   8.83206              7.91964
1241.87814  1396.33692  279.00000  21.21628             17.10358
1242.07727  142.91364   220.00000  17.78273             16.17393
1245.05983  296.90028   351.00000  24.34214             18.63295
1240.20225  1103.94382  89.00000   11.58003             9.82694
1242.61927  652.96789   218.00000  22.81657             12.50044
1245.80645  688.41577   279.00000  23.86046             15.16036
1244.28889  26.23333    90.00000   12.23024             9.36384
1248.53846  186.02834   247.00000  18.03406             17.54391
1247.69841  531.10582   189.00000  17.88717             13.56084
1245.43478  1069.33333  69.00000   10.46801             8.50206
1250.08230  389.58025   243.00000  21.15962             14.87760
1249.78761  456.69912   226.00000  20.69624             14.10735
1251.39130  790.32411   253.00000  21.24897             15.24306
1253.19397  1273.90086  232.00000  21.27609             13.99814
1253.53431  281.61275   204.00000  21.07407             12.68836
1256.08421  667.36842   285.00000  24.82278             14.85510
1253.96133  993.71823   181.00000  16.09438             14.57492
1254.77122  1087.68266  271.00000  19.73229             17.67552
1250.97368  1099.81579  76.00000   11.20328             8.64723
1250.78571  1201.55195  154.00000  16.75254             11.82021
1250.35417  1387.29167  48.00000   8.67470              7.05088
1255.38863  1064.64929  211.00000  17.62529             15.66345
1259.41980  817.10580   293.00000  23.90995             16.10900
1258.28333  1031.14444  180.00000  19.84674             11.65999
1257.46222  202.58667   225.00000  19.19142             14.94076
1260.08970  1173.63787  301.00000  20.60497             18.72619
1258.21875  67.12500    160.00000  15.91456             12.85345
1257.46341  121.48780   82.00000   12.59323             8.31228
1264.90149  1661.63284  335.00000  24.40117             17.88726
1259.07895  28.59649    114.00000  12.82891             11.41922
1256.30303  133.93939   33.00000   7.82379              5.76717
1264.98596  593.22456   285.00000  27.88042             13.22962
1262.40000  517.16875   160.00000  15.81744             12.91097
1264.46524  1398.29412  187.00000  18.74155             13.06885
1259.57407  308.50000   54.00000   8.87469              7.71507
1264.84434  452.17453   212.00000  18.00811             15.18574
1269.26244  572.79186   221.00000  25.55822             11.39203
1259.05000  1389.10000  20.00000   5.21536              4.79583
1267.38007  334.92251   271.00000  21.98728             15.72260
1265.85887  390.05242   248.00000  18.93931             16.80355
1267.07981  1277.44601  213.00000  22.92626             11.94367
1264.56944  108.16667   72.00000   11.14104             8.20704
1266.68561  1253.16288  264.00000  24.78587             13.75611
1273.80564  227.42633   319.00000  26.26371             16.15820
1269.87342  411.78903   237.00000  24.91783             12.42998
1270.21834  652.73362   229.00000  19.54865             15.11601
1274.47719  1157.66316  285.00000  24.05538             15.53240
1266.38983  1380.32203  59.00000   8.96514              8.37328
1270.34161  1117.18634  161.00000  14.67130             14.00868
1273.21463  1408.35610  205.00000  17.79592             14.77218
1272.50000  193.11486   148.00000  15.98414             11.81268
1275.73256  1102.63953  258.00000  25.67829             13.02022
1277.80412  524.75773   194.00000  16.70903             14.85870
1278.96970  614.33766   231.00000  23.05676             13.39191
1273.03333  1234.33333  30.00000   6.74640              5.67073
1274.00000  1390.75610  41.00000   7.23137              7.16525
1282.55288  1215.06731  208.00000  18.27556             14.52988
1285.18325  201.19895   191.00000  20.62564             11.84405
1279.24000  1036.36000  25.00000   6.13382              5.15569
1288.52790  39.20601    233.00000  22.26018             13.50055
1288.40968  1011.13871  310.00000  21.74127             18.58168
1285.08000  1146.02857  175.00000  17.72513             12.64691
1290.11940  849.09453   201.00000  17.08037             15.08679
1290.21586  876.10573   227.00000  21.59448             13.46936
1289.56977  1359.27907  172.00000  15.51826             14.28609
1292.96053  1671.84211  228.00000  20.33564             14.51446
1300.01948  358.74675   308.00000  34.40855             11.93298
1292.58442  637.03463   231.00000  20.38104             14.44543
1291.33813  54.94964    139.00000  13.82532             12.81739
1293.93333  430.76061   330.00000  27.91317             15.22160
1294.89610  276.61039   231.00000  20.04857             14.76009
1291.85185  1284.05556  54.00000   9.54138              7.27034
1297.09635  1346.04319  301.00000  25.82486             15.36644
1298.07609  1205.10326  184.00000  18.14264             13.05069
1296.35556  486.37778   180.00000  16.60808             14.09960
1296.68345  507.56835   139.00000  15.63001             11.48457
1297.85263  1044.10000  190.00000  17.76426             13.63461
1295.87912  1243.38462  91.00000   12.16000             9.63714
1299.71552  200.45690   232.00000  20.51929             14.56896
1306.64310  234.30640   297.00000  28.74090             13.39768
1299.51948  1216.71429  77.00000   10.37180             9.46610
1302.80080  1327.37052  251.00000  22.05551             14.53770
1303.26961  985.20588   204.00000  18.48583             14.45620
1305.01754  1299.83333  228.00000  19.56023             15.20274
1307.83333  467.03774   318.00000  22.99790             17.72432
1303.94215  31.07438    121.00000  14.29916             10.79119
1306.53778  1650.26222  225.00000  19.11341             15.31910
1305.14851  1138.90099  101.00000  12.30497             10.48520
1307.89091  65.77576    165.00000  16.12149             13.11024
1306.93750  81.15972    144.00000  15.70483             11.71887
1311.56904  369.75732   239.00000  23.15824             13.33820
1308.29139  401.42384   151.00000  16.09447             11.97542
1311.80315  508.75591   127.00000  14.82231             10.99541
1314.07004  543.56420   257.00000  31.55615             10.48858
1314.18719  1202.85714  203.00000  20.52746             12.74696
1316.01047  897.46073   191.00000  16.53918             14.74672
1316.51087  1001.04891  184.00000  16.97374             13.96049
1318.56612  1383.10744  242.00000  24.25306             12.91795
1315.20130  985.51948   154.00000  15.98201             12.48683
1317.40278  295.87037   216.00000  19.22753             14.33309
1320.47638  571.41732   254.00000  24.47070             13.28768
1321.80272  1155.31973  147.00000  17.76124             10.62380
1324.68159  764.01990   201.00000  16.82803             15.24607
1325.20567  1240.80142  282.00000  23.34578             16.63095
1326.98333  431.87222   180.00000  18.60491             12.55355
1329.26582  625.80169   237.00000  19.76741             15.40221
1335.11357  1164.35457  361.00000  25.43420             19.00495
1333.33603  989.00405   247.00000  19.30469             16.35040
1334.40838  326.92670   191.00000  20.04260             12.31951
1334.84520  932.60991   323.00000  27.48004             15.44946
1333.72105  33.41053    190.00000  16.26380             14.92472
1340.09574  1101.79787  282.00000  25.60756             14.54434
1335.44860  297.84579   214.00000  17.86370             15.41143
1337.84646  259.69685   254.00000  20.38507             16.21081
1336.69620  399.34177   158.00000  15.13215             13.29610
1343.01141  1021.06844  263.00000  21.23052             15.90615
1341.83929  148.22321   112.00000  14.09467             10.40542
1344.78295  1085.68217  258.00000  22.13255             15.41359
1348.00000  115.26619   278.00000  22.50127             15.87218
1346.62551  570.07407   243.00000  18.65570             16.71215
1347.42657  963.22028   286.00000  21.55477             17.09572
1341.02128  1174.57447  47.00000   8.55712              6.93733
1347.07407  454.65079   189.00000  23.04461             10.64617
1350.98990  59.86869    198.00000  17.54223             14.41774
1344.75000  1111.05000  20.00000   5.70065              4.38891
1349.77005  1386.12299  187.00000  18.30123             13.41953
1352.33441  597.99678   311.00000  23.98126             16.71966
1359.36111  344.68687   396.00000  27.04085             19.22871
1350.91045  1032.08955  67.00000   9.42528              8.99652
1355.00427  268.82479   234.00000  22.50232             13.42374
1359.39130  1125.13406  276.00000  23.54446             15.19990
1359.29384  756.74882   211.00000  20.36617             13.22225
1358.62025  981.34177   237.00000  19.10851             16.14820
1360.10963  300.67914   374.00000  25.45698             18.76810
1360.14634  1067.83333  246.00000  20.00631             15.94098
1357.31507  453.95890   146.00000  15.49802             12.04347
1363.90421  1006.65134  261.00000  27.51109             12.97825
1361.93925  1253.16355  214.00000  19.24936             14.18052
1369.80825  180.28883   412.00000  31.23023             17.27202
1366.51724  968.01724   174.00000  16.55171             13.65954
1366.44382  1018.83146  178.00000  17.12297             13.33771
1372.66667  481.90244   246.00000  19.72860             15.93504
1372.71338  666.44904   314.00000  24.93746             16.43603
1372.38021  599.68229   192.00000  17.25906             14.24302
1374.20737  515.77419   217.00000  23.02853             12.45890
1375.37500  1028.56071  280.00000  22.81855             15.95813
1379.57921  911.82178   404.00000  30.08524             18.69538
1375.16854  1248.93258  267.00000  28.09579             12.60529
1375.20161  1300.70161  124.00000  16.20601             9.90601
1375.46364  1327.61364  220.00000  18.14647             15.47096
1377.38340  108.57708   253.00000  19.55790             16.56148
1376.88571  281.00000   210.00000  18.86816             14.52921
1382.20478  1127.01024  293.00000  27.32344             13.94892
1381.20988  257.58025   162.00000  15.52585             13.38386
1384.23151  576.25723   311.00000  23.42663             17.05119
1382.48901  36.79121    182.00000  18.05041             12.83324
1382.07692  422.75641   156.00000  14.61559             13.77128
1382.60811  707.81532   222.00000  19.77112             14.34362
1388.77857  978.90714   280.00000  26.28605             14.52902
1387.60000  510.41622   185.00000  18.23651             13.07941
1389.54412  625.33333   204.00000  17.08754             15.40852
1385.34783  1.34783     23.00000   6.94080              4.18558
1390.23984  483.25610   246.00000  18.30879             17.24021
1393.58640  201.82720   353.00000  28.39842             16.19334
1392.36226  379.41132   265.00000  20.13960             17.00891
1393.48214  1207.82589  224.00000  18.28812             15.88747
1393.70536  523.64286   224.00000  19.65794             14.66263
1395.30319  45.01064    188.00000  18.37417             13.10118
1399.26423  332.67480   246.00000  24.97542             12.62163
1397.22909  1182.28000  275.00000  22.26968             15.96371
1400.99206  662.48413   252.00000  22.04437             14.60841
1397.49590  1027.58607  244.00000  19.20929             16.74689
1398.51064  1229.73759  282.00000  22.80103             15.79306
1398.68020  351.04569   197.00000  18.60487             13.67224
1404.79121  760.22344   273.00000  24.39668             14.27907
1399.68880  1127.93776  241.00000  24.94531             12.62496
1402.55785  22.64463    242.00000  17.85409             17.38577
1403.18026  680.18455   233.00000  19.79260             15.16870
1402.44351  137.89958   239.00000  19.18764             15.90580
1402.86066  259.87295   244.00000  18.03561             17.61473
1404.80328  1085.52869  244.00000  21.48208             14.76324
1404.30556  273.73889   180.00000  16.84872             13.72518
1407.74586  360.12707   181.00000  17.72641             13.16855
1413.91857  231.03583   307.00000  28.84921             13.67134
1402.82143  589.32143   28.00000   6.39461              5.58850
1411.40574  1398.25000  244.00000  20.61069             15.17196
1416.82437  298.23297   279.00000  26.68446             13.55873
1415.13859  417.55707   368.00000  27.78906             17.55167
1405.84615  517.02564   39.00000   7.68614              6.40679
1412.88739  1414.21622  222.00000  20.63771             14.32753
1411.98649  469.58559   222.00000  22.76525             12.45395
1412.77273  960.49587   242.00000  19.59327             15.78484
1409.74468  993.87234   47.00000   9.24570              6.47257
1415.82231  200.68182   242.00000  20.47915             15.16084
1414.13808  576.11715   239.00000  21.22110             14.51308
1420.51399  447.82517   286.00000  21.72032             17.18964
1421.16168  137.02994   167.00000  16.83930             12.82141
1415.29412  530.47059   34.00000   8.11124              5.38936
1424.87977  1018.20821  341.00000  27.66974             15.86324
1420.83886  1070.11848  211.00000  18.08679             14.89682
1424.02273  543.35455   220.00000  24.99899             11.35278
1428.19748  597.27311   238.00000  21.30847             14.66478
1429.53933  120.80899   267.00000  27.72694             12.69764
1427.63279  983.67541   305.00000  21.25870             18.37286
1427.04831  157.90821   207.00000  17.76519             14.99158
1431.04865  1406.11351  185.00000  15.68334             15.02195
1441.17021  329.85106   329.00000  26.59571             16.17481
1441.48000  951.15636   275.00000  24.26273             15.06539
1438.58333  440.88235   204.00000  17.60441             14.84915
1441.03552  631.88798   366.00000  24.34933             19.58319
1440.83784  377.29344   259.00000  19.78036             16.86343
1440.79060  516.13248   234.00000  20.03678             15.11686
1439.83920  1946.48241  199.00000  19.65060             12.99973
1436.19277  1993.69880  83.00000   11.32399             9.48991
1443.77778  249.01646   243.00000  22.04929             14.15309
1442.98897  486.70221   272.00000  22.37250             17.07570
1444.73251  1034.20988  243.00000  20.44836             15.35206
1451.58186  97.28715    397.00000  29.31663             17.52710
1447.61304  276.93043   230.00000  18.89518             15.54835
1450.96279  1020.66512  215.00000  22.56478             12.21704
1453.42408  573.17801   382.00000  28.38677             17.33260
1451.89529  914.92147   191.00000  17.73975             13.89568
1450.51852  55.75926    108.00000  13.35169             10.32363
1448.97674  467.02326   43.00000   7.69061              7.08749
1455.61009  386.24312   218.00000  21.05848             13.28264
1458.51807  351.96386   249.00000  18.55917             17.24932
1461.32484  986.12739   314.00000  26.02658             16.08596
1461.67204  1407.06989  186.00000  17.54970             13.60796
1463.01794  488.46637   223.00000  17.26358             16.54154
1463.33040  447.46696   227.00000  18.10424             16.00568
1464.32051  1392.57692  78.00000   11.13930             9.02550
1468.18310  876.64789   213.00000  20.10877             14.00569
1475.87500  274.73214   280.00000  25.71355             14.01380
1468.94505  864.20879   91.00000   12.94412             9.11770
1472.59375  160.20089   224.00000  18.04540             15.90391
1472.86772  403.28571   189.00000  16.85104             14.37227
1477.40928  198.66667   237.00000  18.11325             17.22354
1478.31250  177.39375   160.00000  20.22754             10.38766
1477.92083  845.46250   240.00000  20.39349             15.03495
1483.41714  1016.48000  175.00000  18.25647             12.21062
1487.20000  502.11429   175.00000  15.44477             14.43384
1487.88095  549.52857   210.00000  19.09583             14.04296
1494.01186  662.82609   253.00000  26.60678             12.15789
1491.53676  478.18750   272.00000  21.05932             16.73260
1491.03279  584.75956   183.00000  20.62472             11.33668
1496.48047  754.26953   256.00000  22.17335             14.88243
1496.40415  268.08290   193.00000  16.67922             14.83143
1502.40755  1393.03019  265.00000  24.20329             14.41057
1499.29167  303.26190   168.00000  16.21306             13.37773
1499.97222  1011.39583  144.00000  16.08066             11.45541
1504.95113  1024.06767  266.00000  23.68966             14.41219
1507.32714  611.55019   269.00000  26.08462             13.33232
1504.30667  413.40000   150.00000  14.92809             12.80289
1506.14786  318.31907   257.00000  22.30629             14.75293
1511.45511  361.17647   323.00000  28.28039             15.44145
1511.92523  132.03738   214.00000  20.04621             13.73107
1511.80208  602.19792   96.00000   12.84472             9.56172
1517.50622  671.89212   241.00000  22.16436             13.93250
1514.46193  211.93909   197.00000  17.82516             14.11226
1516.72727  342.42857   231.00000  18.05623             16.45115
1522.56897  624.86638   232.00000  21.52951             14.02638
1524.15459  312.27536   207.00000  22.85713             11.62101
1520.31792  585.71676   173.00000  16.52646             13.50310
1522.80275  57.36697    218.00000  17.19031             16.18444
1526.31321  755.09434   265.00000  21.43940             15.83829
1524.65116  406.91860   172.00000  17.69329             12.37633
1528.73171  299.59512   205.00000  17.41361             15.18524
1531.99383  581.85802   162.00000  15.51922             13.39305
1534.30519  610.07143   154.00000  14.85675             13.23675
1534.86826  144.36527   167.00000  17.74744             12.00520
1538.85567  189.27320   194.00000  21.54800             11.68890
1539.03636  331.22424   165.00000  20.49335             10.43755
1541.85973  671.71041   221.00000  19.03126             15.03272
1540.49479  383.52083   192.00000  20.39850             12.03026
1547.55508  1022.58051  236.00000  24.35681             12.56105
1547.65314  414.51292   271.00000  22.96619             15.03646
1550.17647  304.62092   153.00000  15.17957             12.93872
1553.28671  343.15385   143.00000  16.02378             11.39773
1561.78157  597.52901   293.00000  23.27035             16.05220
1559.97452  237.29299   157.00000  15.16172             13.26552
1564.31553  347.40291   206.00000  19.19791             13.79135
1566.79842  268.67984   253.00000  22.79433             14.29205
1569.10150  422.71805   266.00000  21.45608             15.88412
1574.10870  822.81522   276.00000  22.29257             15.90876
1576.81107  248.20521   307.00000  23.37870             16.99807
1578.38655  1002.46499  357.00000  27.42503             17.16686
1574.81765  365.47059   170.00000  16.12139             13.46463
1578.37698  399.43651   252.00000  22.12622             14.58081
1583.83395  38.23985    271.00000  20.20885             17.25639
1588.58148  460.06296   270.00000  20.94049             16.81953
1588.07116  73.66292    267.00000  18.56249             18.51307
1588.74815  617.55556   135.00000  17.92096             9.79176
1585.44304  644.70886   79.00000   10.43007             9.68010
1592.48925  309.36559   186.00000  16.61530             14.50050
1594.28058  413.28777   278.00000  20.56424             17.26546
1594.25592  707.39336   211.00000  16.93006             16.59244
1598.46237  606.61828   186.00000  18.50741             13.93777
1596.06250  638.38194   144.00000  15.33742             12.18972
1599.36923  110.98462   260.00000  18.97325             17.58802
1603.39640  694.01802   222.00000  20.19853             14.08421
1601.49635  344.21168   137.00000  14.42732             12.09619
1605.37963  279.81481   216.00000  18.63254             14.97813
1607.47600  383.17600   250.00000  18.29230             17.54967
1604.29688  396.96875   128.00000  13.51632             12.17101
1607.45600  745.35200   250.00000  18.98479             17.06729
1609.52907  629.12209   172.00000  16.58204             13.34838
1617.33840  493.99240   263.00000  25.35499             14.88430
1617.11017  988.96893   354.00000  25.95476             17.44967
1618.56652  802.22318   233.00000  19.92285             14.99749
1620.99574  689.52766   235.00000  17.88993             17.11604
1621.56569  417.25912   274.00000  19.42883             18.07621
1625.76923  666.09050   221.00000  18.54367             15.35757
1630.43841  597.00725   276.00000  26.47542             13.60006
1627.55217  298.40435   230.00000  19.80496             14.80746
1627.74330  355.81992   261.00000  22.83321             14.70159
1632.81522  401.97826   276.00000  24.24222             14.57391
1632.07658  627.67568   222.00000  20.31467             13.95574
1633.83708  437.29775   178.00000  15.80310             14.37588
1639.17259  564.61421   197.00000  18.30629             13.91678
1645.17021  326.51672   329.00000  29.95228             15.01724
1642.38686  390.18978   137.00000  16.36223             10.66100
1645.93309  684.48327   269.00000  24.24244             14.72893
1651.13538  462.80615   325.00000  22.46176             19.13393
1648.68421  571.86466   133.00000  15.32581             11.19536
1649.70303  641.35152   165.00000  16.81916             12.55994
1653.00510  987.05102   196.00000  19.57737             12.94063
1655.42424  232.92424   198.00000  17.76905             14.27848
1659.53979  427.24913   289.00000  22.11093             16.66976
1660.54545  777.40455   220.00000  18.23002             15.52933
1659.75949  659.20253   158.00000  18.32035             11.04184
1662.18831  528.15584   154.00000  19.20377             10.37603
1663.10870  642.09420   138.00000  13.72179             12.94432
1667.65257  686.71140   544.00000  30.58835             23.80746
1665.60294  513.96324   136.00000  14.03265             12.43144
1672.79216  402.12941   255.00000  20.27142             16.08509
1673.27404  981.20673   208.00000  19.57605             13.72143
1673.82105  606.56140   285.00000  24.58849             14.83613
1674.93836  271.26712   146.00000  16.39585             11.35243
1676.07051  502.15385   156.00000  18.33985             10.99705
1677.14439  581.57754   187.00000  19.28023             12.44510
1685.86449  429.33645   214.00000  17.89600             15.33496
1688.59649  960.53947   228.00000  20.07111             14.69913
1691.00524  494.65445   191.00000  20.89890             11.80050
1693.53846  536.90909   286.00000  25.14554             14.74517
1693.25000  324.89130   184.00000  17.52950             13.40528
1697.38710  459.30323   155.00000  16.10664             12.65055
1697.25359  553.10526   209.00000  17.72269             15.12536
1698.29630  303.93827   243.00000  18.25075             17.02854
1709.17544  705.40789   228.00000  18.58930             15.87183
1709.75111  745.54222   225.00000  24.32373             11.82966
1707.93035  422.20896   201.00000  19.36581             13.21202
1712.97083  953.86250   240.00000  20.40020             15.03050
1717.79667  613.05000   300.00000  21.26253             18.11675
1715.77460  362.47619   315.00000  28.00968             14.40263
1720.05357  579.09375   224.00000  18.49518             15.48129
1721.50617  398.94650   243.00000  23.03981             13.68672
1723.95417  420.09167   240.00000  20.96052             14.67953
1728.62083  691.81667   240.00000  27.98772             11.42728
1724.07438  675.35537   242.00000  23.86734             12.95419
1728.83830  706.92766   235.00000  20.61753             14.59403
1730.64143  441.19920   251.00000  22.16229             14.54891
1735.37273  766.05000   220.00000  17.51094             16.17559
1749.70320  607.20091   219.00000  20.27293             14.03301
1754.26000  666.01333   150.00000  16.40962             11.71381
1753.40517  681.31034   116.00000  15.13272             9.82986
1756.28141  647.30653   199.00000  19.04021             13.40091
1758.24390  710.21951   164.00000  16.27146             12.85775
1762.00578  695.62428   173.00000  17.05683             13.00185
1772.05769  665.23077   52.00000   9.43769              7.02918
1780.39604  715.50990   202.00000  18.06306             14.25534
1786.41852  804.88519   270.00000  23.38879             14.73906
1794.61333  675.79333   300.00000  21.56545             17.90686
1805.77778  740.48309   207.00000  17.34525             15.28125
1806.69484  1125.09390  213.00000  18.49739             14.87694
1814.15833  1083.98750  240.00000  19.48342             15.80061
1826.09790  702.49650   286.00000  20.35275             17.94523
1824.12558  749.13488   215.00000  18.47503             14.97190
1830.70625  1024.95312  320.00000  24.33543             17.04761
1833.17964  1790.43114  167.00000  17.97572             11.95174
1837.50820  1197.32240  183.00000  17.64422             13.25994
1843.65726  850.20565   248.00000  21.60233             14.68187
1844.01970  728.65517   203.00000  17.60642             14.72463
1845.80423  1004.16402  189.00000  19.79347             12.17771
1871.33735  1234.71687  166.00000  17.83039             12.12129
1885.38119  982.35644   202.00000  20.05918             12.94637
1906.95076  1285.92803  264.00000  20.93280             16.15829
1915.05455  1237.50909  220.00000  24.19552             11.85598
1922.12281  1317.30263  228.00000  20.89781             14.09104
1925.65158  995.23077   221.00000  22.84274             12.56922
1941.31890  1092.46850  254.00000  21.77338             14.97167
1941.71364  1047.76818  220.00000  18.54690             15.40320
1949.12844  1126.62844  218.00000  18.26935             15.31492
1959.83401  1344.68826  247.00000  20.89806             15.17549
1967.26357  1106.52326  258.00000  18.65574             17.72547
1974.51007  1125.44966  149.00000  13.83748             13.75915
1992.96234  1394.58996  239.00000  19.04611             16.05395
1998.24498  1189.75502  249.00000  20.28564             15.73277
2007.71765  1226.22353  170.00000  16.90970             12.85526
2024.88318  1093.89252  214.00000  23.17430             12.17195
2033.17680  1258.80663  181.00000  18.07602             13.00846
2038.26364  1475.50000  110.00000  13.73950             10.33993
2041.22286  1305.69714  175.00000  18.94277             12.04399