# Filename: Nuclei_bidi_pfa_007.npz
# Voxel size (nm): (108, 108)
# Area quantity: voxels
# Num nuclei detected: 1200
Y           X           AREA       MAJOR_AXIS_LENGTH    MINOR_AXIS_LENGTH
10.04478    691.74627   201.00000  17.21466             15.08273
13.80000    669.36279   215.00000  17.96755             15.33026
68.91787    941.92754   207.00000  18.29549             14.50774
85.20909    1452.89545  220.00000  24.25253             11.94968
90.06007    772.97527   283.00000  21.55294             16.80728
96.54468    800.76170   235.00000  21.67644             13.99757
100.03261   1492.21739  92.00000   12.16533             9.75867
111.82627   960.87712   236.00000  23.75000             12.73829
116.13333   858.72889   225.00000  19.19624             14.94879
122.35323   915.34328   201.00000  19.59357             13.09556
121.91089   941.15347   202.00000  18.47774             13.97628
122.25694   1011.93750  144.00000  17.37684             10.89515
126.63725   929.11765   204.00000  21.50000             12.09974
128.17277   1362.31937  191.00000  17.67294             14.07934
130.42268   869.45361   194.00000  16.66563             14.85541
132.51031   1077.56701  194.00000  18.30966             13.75269
134.26383   1045.40426  235.00000  21.42487             14.05232
135.09402   397.25641   117.00000  13.66972             11.17904
143.78333   1434.06111  180.00000  18.37308             12.68846
149.12448   370.99170   241.00000  23.54417             13.15516
149.14286   425.53741   147.00000  14.66237             12.99448
164.49776   1444.85650  223.00000  18.03130             15.95889
179.78392   434.69849   199.00000  18.09331             14.13781
181.61143   1401.93714  175.00000  17.51473             12.73783
189.41327   1385.68878  196.00000  18.06416             13.85109
190.64706   414.53782   238.00000  21.60927             14.14327
193.82609   1340.44720  161.00000  19.83293             10.62001
196.19231   493.21538   130.00000  13.61614             12.27276
198.51572   1359.22642  159.00000  15.25122             13.30853
203.79255   462.96809   188.00000  17.38654             13.86497
204.24096   433.98795   166.00000  15.96947             13.34063
207.74194   484.66129   124.00000  15.16487             11.30927
214.57787   419.97131   244.00000  19.42157             16.06964
219.48387   1340.47312  279.00000  20.15402             17.69901
221.92432   1265.85405  185.00000  18.12153             13.28602
224.92222   262.85926   270.00000  20.42982             17.24897
225.07947   204.90728   151.00000  15.67490             12.32209
228.35681   1315.32394  213.00000  19.49993             13.95766
229.80088   1290.59292  226.00000  18.49383             15.64547
234.12150   294.14486   214.00000  19.13815             14.37678
241.16165   1253.89850  266.00000  21.92289             15.55028
242.11111   400.77395   261.00000  20.25055             16.46811
257.01471   178.56618   136.00000  18.57668             9.55531
284.42128   508.84681   235.00000  20.24335             15.09108
288.44724   383.68342   199.00000  16.82782             15.13293
297.69565   637.17391   161.00000  15.11657             13.63164
303.68528   395.47716   197.00000  19.43845             13.06389
303.62319   506.54348   138.00000  14.28131             12.36885
306.75000   593.05769   208.00000  18.88771             14.10023
306.82812   59.45312    64.00000   10.81724             8.04547
311.94819   646.45596   193.00000  20.60443             12.20316
309.28750   453.32500   80.00000   11.47575             8.96072
312.54359   468.04615   195.00000  16.17655             15.35556
316.37245   1543.61224  196.00000  21.41928             12.47436
313.64322   618.79397   199.00000  17.44743             14.64099
319.80631   444.70270   222.00000  19.68591             14.37215
325.54545   386.68595   363.00000  27.34616             17.46742
325.41500   413.89000   200.00000  18.51641             13.77655
326.89268   497.66341   205.00000  17.66690             14.94676
331.16897   1606.81724  290.00000  26.58037             14.66957
329.09722   565.07870   216.00000  18.23555             15.12269
340.00000   510.38776   245.00000  18.63571             16.80872
340.35359   687.63536   181.00000  16.24537             14.20232
345.54572   466.55162   339.00000  24.01882             18.20076
344.08629   571.04061   197.00000  16.55498             15.18416
344.74900   192.56972   251.00000  25.49509             12.85866
348.81675   702.40314   191.00000  17.57690             13.87599
363.51196   177.24880   209.00000  17.53408             15.28873
366.83756   234.46701   197.00000  19.33760             13.45093
374.72195   442.37561   205.00000  18.41937             14.25152
382.86695   263.33047   233.00000  21.64732             14.10774
385.43087   524.15756   311.00000  22.91344             17.42874
384.87547   671.78491   265.00000  20.19295             16.78847
383.34682   452.54913   173.00000  16.27258             13.62387
386.57436   1647.56410  195.00000  20.22475             12.32862
389.17734   494.56650   203.00000  18.30855             14.22848
390.85088   1564.26316  228.00000  19.39150             15.15466
392.31522   706.14130   276.00000  20.72517             17.16354
394.09365   290.15050   299.00000  23.59005             16.34116
393.44149   149.85638   188.00000  18.56366             12.95596
398.97030   1673.93564  202.00000  19.49233             13.53574
402.30943   1451.85283  265.00000  21.93490             15.42163
405.40513   1647.02051  195.00000  17.81409             14.32605
409.48829   856.49833   299.00000  25.92312             15.44749
408.64344   1621.22541  244.00000  19.74431             15.80529
406.13836   1541.86164  159.00000  14.90179             13.65581
409.07787   1587.73770  244.00000  22.94844             13.72711
409.65766   702.28378   222.00000  19.67794             14.40822
412.45989   688.54011   187.00000  18.99763             12.62462
413.78075   488.96791   187.00000  16.00974             14.89837
418.89490   1066.23248  314.00000  23.26811             17.49466
421.80603   1660.21121  232.00000  19.64876             15.12443
424.26570   505.85507   207.00000  17.74325             14.94858
436.08696   1115.62802  207.00000  19.98986             13.30733
438.07558   1615.87209  172.00000  14.97250             14.66943
444.98662   1555.84950  299.00000  31.97989             12.59870
440.33505   1574.99485  194.00000  19.19450             13.58294
441.17722   1597.03165  158.00000  15.90130             12.70890
444.07000   712.25500   200.00000  18.34254             13.98115
446.31016   1102.35294  187.00000  18.21665             13.18000
450.72866   1134.26829  328.00000  22.31706             18.80736
448.84351   775.09924   262.00000  25.61940             13.07222
455.47917   1723.67361  144.00000  15.36401             12.10657
457.57057   819.56156   333.00000  26.83205             16.37611
459.04000   1095.84500  200.00000  18.84248             13.57022
457.47647   1573.03529  170.00000  17.59643             12.35678
464.32787   787.19262   244.00000  22.12541             14.21227
462.81529   155.67516   157.00000  16.80887             11.98585
465.25694   1602.18403  288.00000  21.44456             17.12469
464.55804   1667.89286  224.00000  19.61641             14.61756
467.07116   568.42322   267.00000  20.89966             16.38816
467.79114   1688.94304  158.00000  15.21750             13.32674
474.61345   519.26891   238.00000  18.39826             16.56989
473.81858   357.92035   226.00000  18.20575             15.90771
474.53448   1573.60776  232.00000  19.92961             14.87369
478.07212   181.50962   208.00000  24.04530             11.37341
478.13694   1526.37580  314.00000  25.77433             15.62875
482.57831   723.63052   249.00000  18.84171             17.14739
479.93750   775.62500   160.00000  16.51028             12.45384
481.02874   1550.00575  174.00000  18.70088             11.87914
485.31752   571.08394   274.00000  21.19350             16.61326
482.59135   1380.49519  208.00000  17.41428             15.21112
484.66667   1678.74306  144.00000  15.38012             11.98406
494.96316   383.36316   190.00000  20.54743             11.84850
496.33036   533.33482   224.00000  19.35813             14.93587
498.97276   1057.77043  257.00000  20.12519             16.32087
500.18269   1155.08974  312.00000  22.23215             17.96555
505.51738   1340.01636  489.00000  32.19769             22.25423
503.57049   692.75410   305.00000  24.01834             16.25131
501.32234   1093.86081  273.00000  23.15342             15.11366
503.74704   1412.75099  253.00000  20.44774             15.84063
505.08140   1552.29070  258.00000  18.64360             17.67878
505.49624   1618.78571  266.00000  20.40076             16.86052
513.97692   1533.98077  260.00000  25.51537             13.65839
513.00651   761.96743   307.00000  21.11582             19.15530
513.10219   1181.41971  274.00000  21.98677             15.99150
510.00000   1674.88172  93.00000   13.29803             9.06683
514.18310   1124.38732  284.00000  22.30742             16.31227
510.80488   1194.52033  123.00000  12.61220             12.44792
513.97778   1259.54815  270.00000  20.61554             16.73649
514.96063   1598.07480  254.00000  22.01804             14.85485
514.01639   539.33880   183.00000  16.76212             13.97067
514.71200   814.09200   250.00000  19.42332             16.52611
514.59864   1057.67687  294.00000  24.73349             15.30127
521.89535   200.58527   258.00000  24.86922             13.38248
521.88024   1692.49701  167.00000  16.21922             13.16731
525.01531   791.87755   196.00000  17.60651             14.20735
527.88235   419.18824   255.00000  21.49475             15.27766
530.63839   1079.06250  224.00000  19.47263             14.75580
530.88235   1315.83333  204.00000  18.29382             14.29808
531.55814   1397.14419  215.00000  18.35579             14.96162
532.54545   1225.35227  176.00000  16.36165             13.89263
534.55556   1020.92308  234.00000  19.03112             15.71859
532.78707   1061.03042  263.00000  21.69068             15.67003
539.30690   401.66897   290.00000  21.67711             17.52874
541.46078   535.35784   204.00000  18.06574             14.61756
549.66015   1155.87042  409.00000  33.68093             16.58310
545.32418   1334.93407  182.00000  17.20239             13.58399
548.76250   1120.39375  320.00000  22.69644             18.15457
548.97449   1035.73980  196.00000  18.45162             13.61853
547.94619   1175.84305  223.00000  22.07814             13.11996
551.61357   346.84661   339.00000  26.71250             16.68999
552.43496   669.52439   246.00000  27.32135             11.65088
551.20961   1362.32314  229.00000  21.22197             13.78583
552.85992   438.64202   257.00000  19.13458             17.27061
553.56291   801.33775   302.00000  21.99227             17.50046
553.95506   1689.30712  267.00000  21.32704             16.05624
555.96735   214.30612   245.00000  21.25728             14.73464
556.69847   1637.75191  262.00000  23.30980             14.72962
554.24498   1228.64257  249.00000  20.17640             15.89919
559.29010   820.43686   293.00000  20.95492             18.06057
561.13659   1139.78049  205.00000  17.59765             14.98632
562.67660   1656.03830  235.00000  18.20981             16.49808
565.81383   534.98936   188.00000  17.61464             13.66071
566.06695   1090.66109  239.00000  18.09653             16.91263
565.54497   1043.85185  189.00000  16.63825             14.61940
566.57368   1214.19474  190.00000  18.13245             13.34855
570.07422   1585.10156  256.00000  21.51969             15.27129
573.40850   625.85621   306.00000  21.23404             18.73440
573.47137   446.36564   227.00000  18.61184             15.60448
573.36741   1186.92652  313.00000  22.67783             17.77298
576.81227   383.29242   277.00000  24.81734             14.25254
576.60324   1697.58300  247.00000  20.60081             15.44712
579.28947   1076.83224  304.00000  19.97096             19.64021
578.82096   1297.44978  229.00000  20.56370             14.18054
580.52069   598.00000   290.00000  20.74123             17.88396
580.07143   802.44286   210.00000  18.05118             14.85171
584.93939   849.03704   297.00000  22.10158             17.23842
587.68750   1283.59559  272.00000  24.87331             14.08038
585.31325   462.04418   249.00000  18.55924             17.38143
584.50000   507.92308   156.00000  14.68647             13.50812
589.21371   414.86290   248.00000  19.38333             16.29853
594.97554   1058.63609  327.00000  23.26450             18.03288
596.48230   1160.11504  226.00000  20.46896             14.18804
597.86897   810.36207   290.00000  22.66257             16.49434
598.68601   875.54949   293.00000  21.17604             17.69807
601.49327   740.23318   223.00000  21.52868             13.21992
601.95154   1728.63436  227.00000  17.73000             16.39004
602.80000   452.77436   195.00000  16.27169             15.29850
605.45000   502.80500   200.00000  18.84918             13.90756
609.52273   420.63258   264.00000  18.81814             17.95989
607.62338   799.70779   154.00000  16.30606             12.05545
611.52083   895.94097   288.00000  25.38606             14.49470
608.93617   491.23404   141.00000  13.71507             13.15933
612.98673   242.36283   226.00000  19.54212             14.86446
609.76471   723.72059   68.00000   9.78897              8.87395
617.90566   785.27547   265.00000  22.30389             15.57994
615.50163   1123.59609  307.00000  21.93722             18.08391
622.78498   1644.81229  293.00000  20.04280             18.65036
630.46009   771.38028   213.00000  24.85203             11.06871
629.78313   1308.55020  249.00000  20.86679             15.31388
630.64314   1176.59608  255.00000  22.62049             14.66363
634.80000   714.60645   310.00000  20.82975             19.16339
632.49153   807.88136   177.00000  15.76029             14.57796
636.66187   788.61871   278.00000  22.50132             15.87481
642.23920   753.70100   301.00000  25.77959             15.68683
642.64059   525.66259   409.00000  31.28608             17.88039
639.85141   574.14056   249.00000  19.13581             16.58163
643.36726   906.69469   226.00000  23.14504             12.50780
645.46058   683.37759   241.00000  18.92678             16.47184
640.34000   833.56000   50.00000   8.73217              7.31587
650.33579   1725.40221  271.00000  22.28156             15.83434
652.22568   780.78988   257.00000  23.92207             14.29332
653.90323   396.68952   248.00000  19.33584             16.54263
659.70370   1207.11934  243.00000  19.69289             15.88092
658.45113   864.25564   133.00000  16.32373             10.47019
660.51220   228.11220   205.00000  18.68273             14.05080
665.73134   485.18905   201.00000  17.18015             14.96235
669.25556   839.47222   180.00000  18.67696             12.28832
670.74009   757.60352   227.00000  19.40990             14.97821
680.87742   716.24194   310.00000  31.61402             14.04495
672.78947   856.51974   152.00000  16.66866             11.69653
674.07965   807.77876   113.00000  12.90055             11.20292
679.00000   943.26336   262.00000  23.72647             14.16285
680.67857   799.02381   168.00000  15.59256             14.18821
681.88000   1119.14000  200.00000  17.30068             14.88027
684.51282   1169.88462  234.00000  21.38108             14.21812
684.97279   506.47619   294.00000  20.77754             18.33997
687.12360   397.94007   267.00000  23.44706             14.61366
685.50485   873.77670   206.00000  19.93496             13.63794
683.81295   1080.79137  278.00000  23.24099             15.26208
684.87179   1716.90256  195.00000  18.06228             14.04117
690.04194   191.93871   310.00000  23.30367             16.97433
687.71429   1147.35357  280.00000  21.36470             16.80010
689.53030   766.55051   198.00000  18.54004             14.09525
692.45850   950.68775   253.00000  20.94155             15.65759
693.74760   751.12141   313.00000  24.86211             16.81683
690.72527   812.53846   91.00000   13.22608             8.91313
695.96698   820.74528   212.00000  24.03636             11.58357
698.60476   1282.89524  210.00000  19.06473             14.15943
700.44828   1523.46305  203.00000  18.49777             14.00192
704.56552   670.57586   290.00000  22.46585             17.93495
705.16912   540.29044   272.00000  23.56338             15.01238
703.10776   1226.32759  232.00000  19.93573             15.03244
706.12670   1268.79638  221.00000  19.41812             14.85033
703.91667   799.32051   156.00000  17.17714             11.65801
705.23361   856.67213   244.00000  18.34592             17.16023
704.30151   919.64322   199.00000  18.43222             13.75735
713.87546   1240.48718  273.00000  22.15673             15.75942
715.72065   178.44939   247.00000  20.30057             15.56253
713.79096   733.15819   177.00000  19.17349             11.84460
715.47843   762.30588   255.00000  21.26240             15.35278
715.76720   718.19577   189.00000  18.60756             12.95834
717.18874   501.52649   302.00000  22.05677             17.90161
721.41118   892.83224   304.00000  24.56745             15.91492
720.22346   486.54749   179.00000  15.94917             14.49817
719.88757   793.07692   169.00000  20.40329             10.57744
724.84568   611.29630   162.00000  14.97338             13.83098
725.86709   558.75316   158.00000  15.29160             13.22247
733.77246   779.09581   334.00000  28.40015             15.48346
732.63880   544.69231   299.00000  22.44344             17.84907
735.50289   703.20520   346.00000  24.49919             18.00883
734.82131   486.95876   291.00000  25.19811             14.80440
734.13793   729.88670   203.00000  19.29997             13.41298
738.80969   443.77163   289.00000  22.42725             16.55166
743.61888   911.52797   286.00000  21.98081             16.73207
742.01163   827.69767   172.00000  16.91902             13.02960
751.32487   672.73604   197.00000  18.58448             13.68227
755.88929   466.57500   280.00000  21.06744             17.01234
758.59813   203.65888   214.00000  18.49305             14.93508
757.80597   1034.92537  201.00000  16.62470             15.43603
763.44789   503.77183   355.00000  25.76240             18.09451
759.59449   815.17323   254.00000  18.73470             17.38433
761.10256   395.80342   234.00000  19.36137             15.42588
759.40602   1764.62406  133.00000  14.56799             11.64460
761.00699   772.27972   143.00000  14.70307             12.67426
767.30696   841.96519   316.00000  28.15943             14.68490
764.77880   860.07834   217.00000  21.12987             13.16267
767.52910   698.34392   189.00000  19.82877             12.23160
771.00000   936.25463   216.00000  17.81213             15.58210
777.54510   209.70980   255.00000  25.28497             13.43439
775.65294   964.98235   170.00000  15.88612             13.65130
775.56667   407.30667   150.00000  15.47179             12.42180
778.29500   394.63000   200.00000  17.47242             14.77335
777.81081   790.18919   148.00000  17.18387             11.42788
780.20755   2031.39623  159.00000  15.93132             12.90111
782.69154   1013.83085  201.00000  17.14432             14.93110
785.33628   566.86726   226.00000  21.71241             13.61293
786.94340   897.50943   318.00000  23.12867             17.56298
790.25979   221.27402   281.00000  23.30517             15.80521
790.33962   1087.33019  212.00000  17.67772             15.49628
793.21649   871.80928   194.00000  19.42666             12.85264
794.62500   589.34274   248.00000  19.97976             15.97687
794.32716   684.05556   324.00000  20.92199             20.01024
794.02905   989.46888   241.00000  19.82917             15.50756
794.24000   509.42286   175.00000  16.60773             13.50855
797.00459   551.93119   218.00000  19.18790             14.55032
797.74490   788.01531   196.00000  19.06715             13.16965
800.19535   746.92558   215.00000  18.13698             15.20425
799.02256   840.98496   133.00000  14.07078             12.18967
800.69343   852.45985   137.00000  13.79503             12.78541
804.28571   943.48810   168.00000  23.40343             9.92926
805.13333   951.86667   135.00000  17.42160             10.16787
805.97778   768.18889   180.00000  20.55270             11.49042
807.32937   902.84524   252.00000  24.37823             13.29621
807.86335   636.02484   161.00000  15.20520             13.64123
809.73143   599.83429   175.00000  16.08193             13.95445
814.82629   713.43662   213.00000  23.26001             12.07965
812.29104   917.30597   134.00000  13.53677             12.66531
813.66265   968.13855   166.00000  16.66844             12.88452
814.40244   800.37195   164.00000  17.60087             12.18715
820.16615   500.32000   325.00000  24.73635             17.09023
819.17695   589.71605   243.00000  24.21454             13.12354
817.06215   700.92090   177.00000  16.08927             14.19642
816.35979   846.21693   189.00000  22.97626             11.34255
823.05556   640.19192   198.00000  20.48833             12.47680
820.65992   781.76923   247.00000  21.79283             14.61979
818.41589   886.18692   214.00000  20.12705             13.73262
822.02299   663.74713   174.00000  18.12492             12.31840
822.92737   744.54749   179.00000  18.23062             12.53616
822.28426   1091.97462  197.00000  16.05470             15.71152
822.56376   995.48322   149.00000  14.16697             13.59354
826.58687   808.74517   259.00000  20.76703             15.99383
828.29942   622.85756   344.00000  25.12180             18.34986
829.79675   523.08943   246.00000  23.60244             14.26996
831.48178   675.27530   247.00000  21.95914             14.43550
832.38871   457.70846   319.00000  21.67869             18.96607
828.57627   856.73729   118.00000  13.07092             11.57237
834.16034   1006.08439  237.00000  22.81002             13.33836
832.04317   736.22302   139.00000  16.87733             10.52981
835.00541   878.91892   185.00000  18.08163             13.18631
836.65789   993.12105   190.00000  17.35703             14.17912
839.18045   588.98120   266.00000  21.32826             16.87036
851.32941   828.90196   255.00000  38.72541             9.75973
843.25526   694.46547   333.00000  22.27865             19.43109
843.75445   970.14947   281.00000  22.06712             16.85877
843.95890   652.83562   292.00000  19.93299             18.74771
841.27692   577.78462   65.00000   11.35370             7.36424
846.51344   898.25806   372.00000  26.75895             19.53898
846.46753   533.32468   231.00000  21.13082             14.12779
849.99628   554.64312   269.00000  28.14589             12.25752
846.79769   617.60116   173.00000  17.98987             12.27843
845.54645   841.59563   183.00000  16.48926             14.55083
848.43599   865.67820   289.00000  21.34365             17.81992
855.04965   740.33333   282.00000  22.31810             16.23061
854.11060   1082.87097  217.00000  19.10992             14.69031
857.64444   917.41111   360.00000  21.93807             21.05324
856.62048   960.45181   166.00000  16.92552             12.58052
859.35664   793.47203   286.00000  19.17578             19.07815
864.80156   637.67704   257.00000  24.19735             14.09759
860.32468   694.32468   231.00000  18.52484             16.07081
868.16154   759.57692   260.00000  26.14557             13.23009
870.04167   866.34722   144.00000  17.02813             10.84627
870.69364   887.20231   173.00000  19.87074             11.25390
866.33333   1094.27083  48.00000   8.27544              7.36426
872.03802   531.86692   263.00000  22.70643             14.91590
873.27178   854.35540   287.00000  25.60030             14.94566
870.24186   956.26977   215.00000  19.29993             14.89305
875.19355   503.51613   279.00000  21.90651             16.49947
872.69466   663.72137   262.00000  21.68894             15.54165
878.36041   836.21320   197.00000  22.13357             11.42312
874.96694   551.00000   121.00000  13.72603             11.52827
878.10952   586.56190   210.00000  17.04860             16.24416
879.72059   798.42279   272.00000  24.65756             14.28126
886.95682   610.88409   440.00000  34.55464             17.45813
885.98328   679.66555   299.00000  26.29204             14.58884
881.30597   754.37687   268.00000  21.59738             15.99041
885.76471   736.54118   255.00000  23.01800             14.91847
883.35200   538.53600   125.00000  14.13713             11.38254
886.85093   693.95652   161.00000  17.15828             12.08111
888.05579   519.15021   233.00000  20.51465             14.50381
891.57951   709.67655   371.00000  25.72395             18.70401
894.53879   843.85345   232.00000  23.79332             12.60514
894.15766   552.32883   222.00000  20.95248             13.54942
894.55152   479.00606   165.00000  16.50533             12.77274
902.91365   921.11699   359.00000  34.29214             13.83711
899.47273   1016.45000  220.00000  18.23322             15.90905
900.81057   658.21145   227.00000  18.31032             16.04859
899.50000   892.05263   152.00000  15.54096             12.79443
901.99278   463.18412   277.00000  25.69106             13.83726
901.47368   744.04737   190.00000  19.70185             12.40207
901.73171   755.23577   123.00000  15.55720             10.26307
904.19070   239.62791   215.00000  19.56971             14.07278
903.02667   506.19333   150.00000  15.05283             12.97804
909.42379   860.26022   269.00000  27.74352             13.58074
907.34703   439.60731   219.00000  20.18818             13.83355
906.90129   770.64807   233.00000  18.70255             16.44890
908.59459   690.00541   185.00000  18.60446             12.66793
909.29412   259.25490   153.00000  14.97848             13.18122
914.32500   783.29000   200.00000  20.71911             12.38398
914.79358   514.07339   218.00000  18.97908             14.87498
912.81643   733.80193   207.00000  18.52958             14.24662
915.44291   1006.69896  289.00000  23.14231             15.98347
915.36777   1089.64876  242.00000  21.05439             14.75014
912.50459   247.87156   109.00000  13.42945             10.58172
917.18343   423.33728   169.00000  17.88220             12.04129
920.41259   589.28671   286.00000  21.22651             17.32286
920.42857   841.06614   378.00000  30.56281             17.66250
917.53797   1840.96203  158.00000  16.16750             12.45483
925.02963   637.90864   405.00000  27.52209             19.21513
917.85106   498.19149   47.00000   8.30466              7.20857
921.57937   945.45238   126.00000  16.35201             9.97927
924.16746   250.38278   209.00000  17.56211             15.55279
925.05085   468.17514   177.00000  16.69771             13.58543
926.06322   1075.78161  174.00000  16.83181             13.15867
930.73367   576.90955   199.00000  24.39102             10.50262
928.61465   395.33121   314.00000  25.45385             15.86715
931.20000   693.29268   205.00000  20.89466             12.65365
928.17143   681.53571   140.00000  13.91411             12.84049
933.30749   815.62834   374.00000  26.94380             18.13257
931.66667   912.77966   177.00000  19.33439             11.84599
933.55137   426.52740   292.00000  23.10584             16.69008
932.43678   750.66667   261.00000  18.90789             17.59197
933.99603   664.89286   252.00000  20.65231             15.91933
935.77434   994.90708   226.00000  19.60470             14.82804
932.86777   947.66116   121.00000  13.61466             11.37906
935.60510   1453.36306  314.00000  23.99971             16.94940
938.04908   617.35583   163.00000  15.63732             13.36551
936.49296   877.42254   71.00000   14.06236             6.57017
938.67050   719.09195   261.00000  22.97715             14.68396
939.97656   679.38281   128.00000  14.57609             11.46447
944.84142   458.34951   309.00000  21.86123             18.27482
953.15405   774.49869   383.00000  33.60943             14.65069
945.87778   843.86296   270.00000  22.80290             15.20304
941.77358   882.79245   106.00000  14.44326             9.54808
943.46591   1907.52841  176.00000  17.45851             12.91532
945.07547   740.47170   106.00000  13.29286             10.16968
948.65690   1721.60669  239.00000  23.31779             13.18573
951.35028   1048.04520  177.00000  20.16486             11.53396
950.37705   1514.28689  244.00000  24.40950             12.99411
954.15929   582.91593   226.00000  18.90224             15.34703
953.92746   332.40415   193.00000  17.48154             14.13806
956.14851   736.51980   202.00000  20.94565             12.53312
957.99615   880.26154   260.00000  26.33407             13.18299
957.12136   636.69417   206.00000  19.04585             13.91058
957.27094   898.82266   203.00000  18.58909             13.99084
958.46512   299.50000   258.00000  20.60843             16.15484
957.51389   721.44444   144.00000  15.13386             12.60610
958.44906   1499.24906  265.00000  20.54328             16.52956
956.09816   708.21472   163.00000  18.41727             11.41889
958.05696   1482.84810  158.00000  14.91119             13.55046
962.40909   1085.25379  264.00000  23.07036             14.80752
964.78571   341.23571   280.00000  24.80239             14.79829
963.33333   786.44444   135.00000  16.04212             10.82080
965.48325   279.10048   209.00000  18.23532             14.61323
966.35294   523.28235   170.00000  17.13370             12.76081
961.86765   694.50000   68.00000   10.88023             7.96605
963.47115   1045.51923  104.00000  16.32529             8.46283
966.40580   928.16667   138.00000  17.66975             10.12126
970.45631   840.35599   309.00000  28.83832             14.19656
970.48790   563.71371   248.00000  19.18824             16.57770
972.09129   752.52697   241.00000  21.70956             14.18557
969.94606   798.61826   241.00000  20.12828             15.31445
969.14136   1431.93717  191.00000  16.05239             15.17889
971.54661   622.48729   236.00000  18.38877             16.69625
971.94422   716.04382   251.00000  18.93314             16.94112
970.65680   731.51479   169.00000  16.27878             13.29594
968.19444   938.63889   108.00000  12.37384             11.25021
971.06881   1015.84404  218.00000  18.91295             14.73686
972.41294   1071.55224  201.00000  18.26621             14.06989
976.16667   433.10606   264.00000  22.53945             15.15826
976.47765   588.45251   358.00000  22.04108             21.13012
974.51934   1741.65193  181.00000  15.70839             15.08094
976.02165   504.24242   231.00000  18.78448             15.69614
977.06220   692.89952   209.00000  19.24150             14.00719
978.34545   480.69818   275.00000  21.70925             16.18764
975.09524   654.12925   147.00000  14.90325             12.88190
979.83271   829.87361   269.00000  20.14955             17.30242
978.40175   526.08734   229.00000  22.48214             13.97962
980.04029   1141.44689  273.00000  20.65494             17.21184
980.56379   230.73251   243.00000  19.20706             16.22178
981.76712   644.62329   146.00000  15.36418             12.64189
978.54955   967.61261   111.00000  12.84341             11.18208
983.85522   297.72727   297.00000  23.87571             16.02715
985.34071   627.40708   226.00000  22.01744             13.12694
982.50296   1980.26627  169.00000  15.64508             13.87654
989.50779   758.31776   321.00000  23.63488             17.66811
986.80110   883.28729   181.00000  20.27454             11.56034
984.10241   1011.10241  166.00000  16.11867             13.16063
985.14163   1110.81545  233.00000  21.21458             14.12492
986.19767   708.66860   172.00000  17.59542             12.83600
985.15385   958.72650   117.00000  12.98599             11.52524
989.69000   1515.42000  200.00000  17.53442             14.61588
987.03297   925.96703   91.00000   10.92633             10.59797
997.66555   780.82943   299.00000  23.31883             17.95899
994.00000   816.52905   327.00000  24.48058             17.44725
990.30097   936.44660   103.00000  12.04133             10.90635
999.22985   537.55224   335.00000  27.53584             15.68169
994.10363   1491.88601  193.00000  16.86361             14.93077
995.28037   217.24299   214.00000  17.26060             16.06936
997.72438   743.54064   283.00000  26.69811             13.76907
995.94077   1029.99652  287.00000  20.12764             18.35023
995.67241   678.77011   174.00000  17.83244             12.78982
1000.06699  796.72249   209.00000  21.27126             12.54160
997.11200   908.24800   125.00000  15.78095             10.17059
1001.72348  557.48864   264.00000  22.26971             15.17927
999.51256   420.39698   199.00000  18.87481             14.04199
1001.41888  645.09735   339.00000  31.03238             14.69705
1003.19128  502.41275   298.00000  22.97187             16.58299
1001.86100  722.68340   259.00000  21.41818             15.63129
1002.11154  264.99615   260.00000  19.26069             17.23401
1004.76707  837.57831   249.00000  20.20217             15.83393
1006.01992  368.54183   251.00000  19.26967             16.64080
1006.18774  868.50958   261.00000  21.73682             15.70913
1007.53047  1043.10394  279.00000  22.73830             15.81208
1007.19424  679.89928   139.00000  19.38350             9.30555
1009.29804  222.39608   255.00000  20.04470             16.29303
1010.17834  711.82166   157.00000  14.42389             13.93172
1012.96907  483.69759   291.00000  20.36716             18.49536
1009.58427  907.65169   89.00000   12.59151             9.11261
1012.49223  622.29016   193.00000  16.31211             15.24743
1014.31790  822.66049   324.00000  21.69399             19.21506
1013.73039  580.78431   204.00000  18.45987             14.35107
1009.24561  951.12281   57.00000   9.33717              7.75255
1012.26056  1102.59155  142.00000  14.98939             12.12897
1020.40636  682.58304   283.00000  22.08556             16.50373
1012.76543  1980.77778  81.00000   12.66805             8.26853
1019.67164  338.92537   201.00000  18.92228             13.54314
1023.45185  605.25556   270.00000  30.17984             11.78602
1022.12698  563.84921   126.00000  18.13065             9.17851
1021.59727  1024.64505  293.00000  24.82749             15.07869
1023.17500  808.51875   160.00000  17.47396             11.68610
1026.34343  644.24747   198.00000  18.74795             13.90846
1025.97080  986.13504   274.00000  22.73177             15.57222
1027.93574  1106.12450  249.00000  18.60567             17.10037
1031.71223  578.28417   278.00000  21.79165             16.34265
1028.91787  1073.82609  207.00000  18.53132             14.24283
1032.34050  767.39785   279.00000  26.38477             13.92714
1033.58555  624.08745   263.00000  20.57287             16.35678
1030.42775  949.64740   173.00000  17.54704             12.56359
1032.31210  1816.04459  157.00000  18.19452             11.14152
1031.34615  532.16667   156.00000  15.95674             12.69950
1032.40845  1012.30047  213.00000  18.51261             14.74368
1032.24204  494.28025   157.00000  16.24749             12.37280
1032.62385  1934.91743  218.00000  19.69197             14.11942
1033.52217  371.85714   203.00000  20.28429             12.74596
1033.41414  905.78283   198.00000  20.37729             12.84935
1037.70614  854.03947   228.00000  18.60215             15.79004
1035.67176  713.53435   131.00000  16.29705             10.21857
1042.80678  875.36610   295.00000  24.95368             15.38774
1038.19797  2004.91371  197.00000  17.62611             14.31074
1039.46429  997.06122   196.00000  16.58623             15.11319
1042.38991  1088.36239  218.00000  22.43717             12.67532
1043.36145  223.24096   249.00000  20.38682             15.92933
1042.15504  1052.55039  258.00000  24.48385             13.72910
1039.24675  1879.27273  231.00000  21.64418             13.61743
1040.44915  639.71186   118.00000  13.75385             10.97474
1042.73973  667.67808   146.00000  18.14458             10.37274
1044.77328  195.14980   247.00000  20.97078             15.15963
1043.55000  799.59000   200.00000  16.79835             15.28024
1041.93333  965.62857   105.00000  13.98577             9.76221
1043.70056  908.81921   177.00000  20.31543             11.25630
1046.40933  1911.16580  193.00000  18.75611             13.22541
1048.38012  1132.79532  171.00000  16.48144             13.25239
1052.32362  257.98058   309.00000  25.26057             15.68672
1049.65241  767.25668   187.00000  17.95310             13.48414
1048.50000  835.87234   188.00000  19.44087             12.39441
1051.71111  819.96296   135.00000  18.59132             9.27751
1056.77992  777.39382   259.00000  30.67429             11.09668
1049.18182  955.36364   55.00000   10.40214             7.17483
1053.41827  584.87500   208.00000  17.31741             15.54832
1055.68639  596.39053   169.00000  20.70289             10.92811
1053.91628  1042.11628  215.00000  21.27173             13.34285
1054.99206  1000.81746  252.00000  19.83851             16.24204
1055.87266  502.54307   267.00000  19.49843             17.59047
1060.34583  1083.40833  240.00000  22.54923             13.70465
1055.75155  906.49068   161.00000  14.87505             13.89865
1059.07328  325.37500   232.00000  22.32630             13.34530
1058.94323  981.01747   229.00000  17.12857             17.08766
1059.79688  948.48438   128.00000  15.39393             11.00513
1059.51142  1027.04566  219.00000  17.12505             16.35266
1060.30058  750.10983   173.00000  16.20274             13.79852
1063.42913  1142.48819  254.00000  19.06644             17.05695
1064.41781  555.23288   292.00000  23.17892             16.23147
1062.18243  823.29730   148.00000  15.78733             12.25638
1065.45643  201.78838   241.00000  19.43581             15.89202
1066.80734  710.38991   218.00000  19.18854             14.51615
1066.43946  894.05830   223.00000  20.11122             14.23442
1064.92086  807.65468   139.00000  15.25367             11.65545
1065.16535  846.96850   254.00000  24.03419             14.43689
1064.92969  232.88281   128.00000  13.00600             12.60139
1065.38356  1066.02055  146.00000  15.28820             12.22923
1067.80687  1043.18026  233.00000  19.13583             15.58748
1070.00000  693.82609   207.00000  21.74212             12.35209
1069.60101  650.24242   198.00000  17.67760             14.41292
1074.55245  927.13287   286.00000  25.22598             14.74617
1071.90574  480.61066   244.00000  18.76783             16.67297
1073.31203  626.71429   266.00000  20.35818             17.12417
1075.27835  222.92784   291.00000  23.49663             15.89098
1072.65263  946.26316   95.00000   11.84848             10.22206
1076.68182  703.16667   132.00000  15.96377             11.60211
1076.75799  676.51598   219.00000  19.74454             14.43698
1076.94444  572.54630   108.00000  12.89840             10.66282
1085.06693  1192.61417  254.00000  25.62405             13.81692
1082.11429  772.30794   315.00000  26.03534             15.75054
1077.92500  496.97500   40.00000   7.90591              6.37154
1080.72932  964.50376   133.00000  14.51730             11.76015
1086.02023  582.92486   346.00000  24.74054             18.43391
1084.60169  729.26695   236.00000  18.65860             16.38856
1087.21250  444.50417   240.00000  22.04211             14.02459
1090.45833  519.38782   312.00000  23.36566             17.08115
1090.26087  1010.96273  161.00000  22.62299             9.20619
1088.90574  385.80328   244.00000  22.14759             14.10273
1093.54978  1221.40693  231.00000  23.81914             12.53300
1090.49174  1089.52479  242.00000  22.31612             13.86700
1090.18085  1182.96809  94.00000   11.62514             10.60597
1093.81385  689.65368   231.00000  21.56104             14.00953
1093.18224  862.17757   214.00000  19.37581             14.10741
1099.77143  820.42857   280.00000  28.30723             12.94649
1092.32143  966.78571   84.00000   11.41397             9.38592
1095.06471  673.91765   170.00000  15.93645             13.63283
1097.40777  881.73301   206.00000  18.13327             14.52567
1097.59091  974.81364   220.00000  20.57508             14.72586
1097.61481  401.12963   270.00000  20.98759             16.49838
1099.80081  1024.25203  246.00000  21.24413             15.00715
1105.71154  724.43077   260.00000  20.03807             16.59722
1102.59799  850.28643   199.00000  21.23228             12.03535
1103.74667  931.46222   225.00000  19.37651             15.21808
1107.95000  993.76250   240.00000  23.16364             13.23770
1107.76279  412.49767   215.00000  17.75430             15.70649
1110.15179  593.81696   224.00000  19.05520             15.17734
1108.54753  632.54373   263.00000  21.57226             15.66378
1110.14414  760.30180   222.00000  17.98282             16.01630
1107.80952  1952.07738  168.00000  16.55553             13.00549
1111.32487  802.17259   197.00000  17.38051             14.48669
1111.51528  830.64629   229.00000  24.99282             11.91929
1110.97233  1899.62846  253.00000  19.51716             16.71258
1113.08085  1136.63830  235.00000  19.53825             15.48724
1116.48624  1030.97248  218.00000  23.20282             12.31688
1114.28718  1154.57436  195.00000  16.40733             15.59674
1115.24473  657.60759   474.00000  32.97745             18.56549
1119.05054  913.75090   277.00000  23.52448             15.11706
1117.92213  1056.25410  244.00000  20.97861             15.32642
1123.39566  268.86721   369.00000  30.14037             16.45397
1116.21127  937.39906   213.00000  22.03961             12.39142
1119.55665  246.40394   203.00000  17.18985             15.13404
1119.81457  538.17550   302.00000  21.59735             17.90505
1121.33333  700.67480   246.00000  22.23439             14.19891
1123.91020  964.71837   245.00000  22.56426             14.13473
1119.56277  1084.88312  231.00000  20.76176             14.64711
1127.48026  461.87171   304.00000  24.58673             16.02340
1125.94907  807.09259   216.00000  18.20177             15.34294
1124.35652  1873.81304  230.00000  18.81669             15.59041
1123.13333  687.84444   45.00000   8.78411              6.58880
1126.79781  1168.06557  183.00000  17.56615             13.41223
1132.02128  493.24113   282.00000  19.98778             18.13752
1131.02703  1150.85946  185.00000  19.43580             12.18052
1134.25758  478.37374   198.00000  20.36589             12.41517
1131.80455  595.74091   220.00000  20.87525             13.51337
1133.15000  662.62188   320.00000  21.65760             19.60486
1132.26901  760.09942   171.00000  16.61888             13.22476
1133.64629  1047.44541  229.00000  19.62533             14.95357
1134.53103  1212.12759  290.00000  26.66835             14.29152
1138.01455  1232.50182  275.00000  21.41766             16.87517
1139.49038  877.67788   208.00000  18.60284             14.27894
1139.64000  274.72667   150.00000  16.08878             12.20993
1141.79167  630.61111   216.00000  18.76728             14.71233
1147.96269  863.53731   268.00000  30.77574             11.12092
1140.62238  1093.27972  143.00000  17.09267             10.80401
1143.12000  531.94667   225.00000  18.80533             15.45759
1143.22843  581.61929   197.00000  17.87337             14.07118
1144.33223  959.71429   301.00000  21.80423             17.59234
1144.39011  1085.06044  182.00000  22.52083             10.95998
1143.79167  1155.42130  216.00000  17.60289             15.81643
1139.67669  2020.63158  133.00000  15.94448             10.68363
1142.60645  818.63226   155.00000  16.56584             12.07512
1144.87013  835.51082   231.00000  21.40790             14.30199
1143.80986  1973.50704  142.00000  15.97415             11.56340
1145.94118  256.94118   238.00000  19.98155             15.20575
1149.90237  983.40237   338.00000  22.66056             19.43261
1149.13018  491.04142   169.00000  17.32448             12.49717
1151.65060  1207.39759  166.00000  20.64078             10.29357
1152.43678  934.75862   174.00000  17.09879             13.06802
1153.96183  759.85496   131.00000  14.94934             11.20136
1162.08455  1180.13994  343.00000  32.96721             14.48315
1159.93607  717.35616   219.00000  19.79591             14.58464
1162.32549  476.87843   255.00000  22.04262             15.21929
1162.33893  617.32215   298.00000  23.50171             16.62647
1162.46411  873.65550   209.00000  22.22939             12.03630
1161.13423  1248.54362  149.00000  16.72222             11.34311
1161.26829  963.03049   164.00000  16.51735             12.68996
1162.40909  769.67424   132.00000  13.78558             12.80650
1164.49189  938.77838   185.00000  17.94848             13.30658
1165.21809  2002.64894  188.00000  16.56691             14.48684
1169.29275  1008.37681  345.00000  23.37854             19.28018
1168.81961  1231.68627  255.00000  23.06953             14.67583
1170.34268  1062.56698  321.00000  25.10611             16.44155
1169.05536  695.10381   289.00000  30.23027             12.55519
1167.02010  985.47739   199.00000  21.56415             11.85498
1173.32808  602.44479   317.00000  22.53791             17.97054
1174.26289  780.84536   194.00000  22.65100             11.26260
1171.08721  488.19767   172.00000  16.98332             13.14079
1167.04167  1030.64583  48.00000   8.85068              6.87732
1176.24303  646.20717   251.00000  24.07776             13.35212
1173.63090  896.74249   233.00000  19.12508             15.77589
1177.53158  249.53158   190.00000  16.67571             14.63789
1182.27547  746.78868   265.00000  23.03276             15.10420
1180.88770  828.44385   187.00000  16.89090             14.61471
1183.75124  760.79104   201.00000  19.91187             13.20930
1181.19178  938.59589   146.00000  18.66139             10.17130
1186.04245  1292.37264  212.00000  17.78361             15.22604
1184.40000  886.84000   125.00000  14.26024             11.26889
1183.05556  721.75000   36.00000   7.05179              6.48936
1189.91481  1901.09630  270.00000  23.11236             15.25726
1193.36310  525.28869   336.00000  26.19720             17.35696
1185.14634  1207.39024  82.00000   11.30021             9.40493
1189.68750  690.07639   144.00000  13.91722             13.29117
1190.49744  990.91795   195.00000  16.63601             15.21258
1188.54701  2001.97436  117.00000  14.00254             10.73150
1194.12593  234.15926   270.00000  23.05503             15.13246
1190.34234  898.09910   111.00000  12.61194             11.30999
1198.19288  450.64688   337.00000  25.04045             17.84968
1194.81532  956.29279   222.00000  21.46184             13.42425
1193.93333  910.56364   165.00000  15.70055             13.38200
1198.73953  1034.43721  215.00000  23.80533             11.64872
1196.98131  481.27570   214.00000  18.20150             15.20844
1194.41463  831.46341   41.00000   8.42447              6.12970
1199.22128  652.00851   235.00000  20.28227             14.76620
1204.00000  1240.96465  198.00000  18.81520             13.42953
1201.02564  841.07692   78.00000   11.13309             8.93569
1207.89850  877.19925   266.00000  23.29190             15.19286
1203.13534  769.23308   133.00000  16.36901             10.53201
1211.21613  826.07742   310.00000  21.30977             18.70429
1208.85946  248.94054   185.00000  17.09149             13.85349
1212.68582  763.51724   261.00000  21.96719             16.36685
1210.91597  933.59244   238.00000  18.37135             16.78210
1209.61739  1989.83478  115.00000  13.88748             10.56873
1212.14286  682.57714   175.00000  15.73622             14.18152
1213.70408  954.67347   196.00000  16.97055             14.82399
1210.50360  1297.52518  139.00000  14.31194             12.34485
1217.76159  501.73841   302.00000  24.88542             15.87064
1212.89412  1006.17647  255.00000  20.89540             15.59608
1213.49327  226.42152   223.00000  19.80469             14.41840
1210.45902  807.93443   61.00000   9.34697              8.25500
1216.63054  199.90148   203.00000  19.44686             13.39115
1219.95062  1225.93416  243.00000  22.13554             14.22858
1213.78947  634.89474   38.00000   7.39398              6.49052
1218.58519  894.99259   135.00000  16.32394             10.65229
1218.45421  916.12088   273.00000  26.96281             13.12295
1220.13109  1032.66292  267.00000  20.79007             16.67721
1218.80150  1050.04869  267.00000  19.83627             17.47969
1223.83665  283.31076   251.00000  22.29262             14.40228
1224.71212  1956.99495  198.00000  18.65246             13.75147
1228.07692  779.30769   299.00000  28.38946             14.12703
1230.19128  177.74497   298.00000  22.06878             17.27435
1227.21138  1830.76423  246.00000  24.57547             12.95782
1230.08711  221.37282   287.00000  21.59323             17.80147
1232.71429  823.17411   224.00000  18.10754             15.91397
1231.35965  882.06140   114.00000  12.82549             11.31873
1235.71374  1810.41221  262.00000  20.37334             16.61819
1236.54167  1864.34524  168.00000  21.77075             10.27732
1238.12834  647.96791   187.00000  17.82966             13.37027
1235.63043  101.18478   92.00000   11.27727             10.43428
1237.41549  1016.03521  142.00000  15.17476             12.07318
1238.73548  665.88387   155.00000  16.60377             11.92390
1246.39789  797.85563   284.00000  22.74806             15.93641
1242.76271  1005.71186  59.00000   9.44873              8.02649
1247.41892  1253.34459  148.00000  14.60602             12.96188
1250.77972  932.44406   286.00000  23.33566             15.94718
1249.64865  213.58108   222.00000  21.53606             13.19947
1250.76271  1011.54802  177.00000  19.11500             11.88960
1254.97015  1302.64552  268.00000  21.45757             16.38516
1257.28826  251.51601   281.00000  21.15380             16.97543
1259.21898  552.52920   274.00000  19.70855             17.86457
1260.12177  1934.49077  271.00000  20.35037             17.36987
1261.66552  303.75862   290.00000  22.35660             16.82111
1267.77644  564.49849   331.00000  27.42404             16.42279
1261.45000  882.37727   220.00000  18.37188             15.25338
1261.43353  669.50289   173.00000  17.53046             12.77594
1263.54891  1035.29348  184.00000  17.32493             13.84997
1278.23143  438.63714   350.00000  37.46021             12.42798
1270.21951  271.36585   246.00000  19.98004             15.84783
1267.75926  947.22685   216.00000  20.01258             13.86862
1269.13889  1333.37500  216.00000  18.25572             15.41355
1270.92070  766.98238   227.00000  17.62376             16.47298
1275.52000  805.27429   350.00000  25.73840             17.46128
1271.32520  220.66667   246.00000  19.33132             16.21204
1273.31395  729.62791   258.00000  21.35832             15.69077
1274.35135  253.83333   222.00000  18.77858             15.36257
1271.19900  638.84577   201.00000  18.99920             13.71662
1274.06579  158.98246   228.00000  18.15648             16.02261
1277.64368  184.58621   348.00000  27.52275             16.31946
1274.41803  1267.38525  244.00000  19.29157             16.20288
1274.15000  608.86875   160.00000  15.39055             13.25124
1274.64975  671.15736   197.00000  17.25337             14.59792
1278.33913  896.53913   230.00000  19.69923             14.93951
1277.20221  1304.92647  272.00000  25.33347             14.07558
1280.82576  1034.60985  264.00000  24.93205             14.11701
1278.20103  133.63402   194.00000  18.26090             13.57064
1280.17431  1357.64220  218.00000  17.54376             15.91242
1280.69274  621.52514   179.00000  15.49454             14.83717
1278.96667  1944.69333  150.00000  16.56796             11.63587
1285.24121  1150.36181  199.00000  18.31180             13.84422
1284.55172  310.85441   261.00000  21.76126             15.34721
1287.55769  419.73397   312.00000  21.58740             18.63079
1285.34234  1229.63514  222.00000  18.41929             15.38000
1291.19383  737.92731   454.00000  32.17241             18.37792
1291.34154  1250.08615  325.00000  21.69710             19.14129
1292.30189  1855.44025  159.00000  15.52165             13.05829
1296.59159  786.22823   333.00000  24.96503             18.01923
1297.86090  1348.98496  266.00000  19.93350             17.09406
1295.18857  1280.42286  175.00000  16.65526             13.37784
1291.63636  1367.63636  22.00000   5.52679              5.12972
1296.48734  271.15190   158.00000  16.16891             12.50487
1298.84014  1165.21769  294.00000  19.99387             18.77914
1298.14537  1219.21145  227.00000  18.69729             15.51754
1303.21923  612.92692   260.00000  28.22107             11.97470
1300.59127  820.50000   252.00000  19.22567             17.05320
1299.69082  927.71498   207.00000  19.48524             13.59840
1301.33721  226.43023   258.00000  18.85853             17.46784
1306.73930  1841.96887  257.00000  21.29876             15.44310
1305.01523  1305.86294  197.00000  17.97704             14.02876
1306.28736  114.29502   261.00000  23.38759             14.23424
1306.27835  1918.57732  194.00000  16.56635             14.94644
1309.72115  1204.18750  208.00000  18.53386             14.52310
1313.97015  754.51244   201.00000  17.67386             14.56760
1317.95307  1385.21661  277.00000  23.05783             15.35330
1317.77607  894.07362   326.00000  20.71177             20.16675
1317.34510  381.58039   255.00000  22.21038             14.63115
1317.26667  264.70476   210.00000  19.29665             13.89904
1320.92593  1274.41481  270.00000  26.64331             13.03005
1318.96454  454.92908   141.00000  15.99235             12.01545
1322.91000  646.76333   300.00000  27.57103             14.03184
1325.47521  465.56198   242.00000  24.04006             13.00684
1322.62255  1855.03922  204.00000  18.97450             13.70621
1324.15269  411.21257   334.00000  23.48682             18.24364
1325.78744  87.08213    207.00000  17.57312             15.10789
1326.64319  736.84507   213.00000  17.78663             15.25784
1327.92780  338.32852   277.00000  22.92344             15.73832
1329.99522  782.00478   209.00000  18.46320             14.53356
1330.49035  853.55985   259.00000  20.30449             16.31143
1331.37828  609.44944   267.00000  22.55047             15.14350
1325.97436  1283.51282  39.00000   7.62210              6.56667
1332.60714  1337.25649  308.00000  23.03738             17.85922
1332.99306  1977.90278  144.00000  16.91872             11.33060
1335.56209  327.28105   153.00000  15.16080             13.09047
1339.73171  385.37979   287.00000  21.38549             17.22881
1338.43697  876.34454   238.00000  19.41676             15.90787
1343.85971  1177.17266  278.00000  30.61417             11.93970
1345.35393  890.07022   356.00000  30.52065             15.27949
1343.94677  807.82129   263.00000  22.16159             15.45224
1346.41355  770.68692   428.00000  28.55761             19.23998
1343.68667  58.69333    150.00000  16.72116             11.57903
1344.01826  165.53881   219.00000  17.50036             16.01455
1344.15023  1265.03286  213.00000  19.06965             14.25416
1345.40071  1763.60284  282.00000  21.79487             16.52177
1345.61722  1189.41627  209.00000  18.81313             14.22419
1349.27843  1248.97255  255.00000  22.51463             15.49635
1346.28777  1821.72662  278.00000  22.18312             16.11492
1347.59859  1233.33803  142.00000  16.91452             10.72445
1349.60000  81.13810    210.00000  17.64885             15.28197
1349.46429  528.29592   196.00000  17.12863             14.62891
1355.18085  404.80142   282.00000  28.93001             12.57598
1349.73558  545.73558   208.00000  20.55023             13.01141
1353.66250  858.55000   240.00000  22.26657             13.96676
1351.53374  1414.94479  163.00000  16.46984             12.71741
1349.77966  1125.30508  59.00000   11.22712             6.82649
1355.50435  869.10435   115.00000  14.79264             10.20629
1358.81648  197.44944   267.00000  20.57126             16.61426
1353.01408  901.56338   71.00000   10.34372             8.69737
1355.70833  1988.51786  168.00000  15.45069             13.92516
1357.41797  1789.10547  256.00000  21.84373             14.97927
1359.55238  95.70159    315.00000  22.43354             17.99024
1360.63402  826.35825   388.00000  27.29336             18.53694
1360.43781  1273.39801  201.00000  18.02647             14.24561
1355.85965  612.57895   57.00000   10.24951             7.03919
1361.98788  1351.16970  165.00000  14.99259             14.04824
1366.63910  314.46241   266.00000  30.51151             11.47839
1367.10954  437.61484   283.00000  25.62889             14.24821
1369.42105  1147.68016  247.00000  19.90589             15.94915
1371.57021  1533.38298  235.00000  20.69722             14.84643
1371.46102  158.04068   295.00000  20.14618             18.77266
1370.93396  805.58019   212.00000  19.27444             14.06798
1376.74667  865.34000   300.00000  23.96157             16.31462
1375.89706  562.32353   136.00000  15.85872             10.97902
1377.68056  1360.80093  216.00000  20.50146             13.46935
1378.03974  792.35762   151.00000  15.82526             12.36501
1380.27083  1861.28125  192.00000  17.20532             14.24913
1386.13313  1388.92260  323.00000  25.57146             16.48452
1384.31356  1886.36864  236.00000  18.59100             16.26841
1384.24390  86.28659    164.00000  16.49957             12.70052
1384.82249  569.94083   169.00000  16.55042             13.02829
1385.87912  1517.46154  182.00000  16.79825             13.81434
1385.31443  1286.68557  194.00000  18.00726             13.72474
1390.85971  207.60791   278.00000  21.46380             16.70260
1387.13636  954.51364   220.00000  19.52092             14.61059
1391.03200  492.05200   250.00000  23.09512             13.79608
1388.24432  1194.97159  176.00000  15.41768             14.59327
1389.25980  785.98529   204.00000  18.26329             14.30605
1393.45675  1477.46713  289.00000  23.69556             15.58976
1392.07447  147.11702   282.00000  19.31055             18.66200
1388.37195  994.94512   164.00000  17.77558             11.99232
1395.25362  728.61232   276.00000  22.53136             15.68641
1395.39524  839.14286   210.00000  20.92219             12.97793
1396.72414  436.85776   232.00000  18.46524             16.07881
1397.74631  879.50737   339.00000  22.77905             19.68128
1398.83019  391.69811   212.00000  18.77735             14.56997
1401.02033  943.77642   246.00000  18.74621             16.85232
1399.44056  1215.95804  143.00000  16.33894             11.33854
1400.33790  1302.62557  219.00000  19.70373             14.17516
1400.18563  1375.91018  167.00000  15.15318             14.25265
1403.42328  796.77249   189.00000  22.08806             11.01127
1399.70652  993.40761   184.00000  18.35452             12.92239
1402.66000  1176.17000  200.00000  17.13202             15.03668
1405.91727  624.08633   278.00000  21.32610             16.79471
1401.48485  825.60606   99.00000   12.42857             10.17491
1403.97516  195.63354   161.00000  15.93462             12.93765
1408.39130  291.55797   138.00000  14.27695             12.29050
1411.26172  960.89062   256.00000  20.32813             16.17999
1411.42328  1387.14286  189.00000  19.46258             12.43582
1412.87317  57.48293    205.00000  18.16749             14.36263
1410.03333  1016.28333  120.00000  13.57092             11.33113
1411.42149  1239.22314  121.00000  16.70326             9.24631
1413.04278  78.35829    187.00000  18.37105             13.02297
1414.56688  314.91720   314.00000  29.21943             14.53062
1415.44393  1251.80841  214.00000  17.14194             16.35993
1414.48558  1293.74519  208.00000  18.13823             14.80777
1416.91188  928.33333   261.00000  19.79780             16.88590
1418.15929  1316.30531  226.00000  19.70898             14.64005
1421.81017  887.99661   295.00000  24.03222             15.66399
1414.37705  1163.09836  61.00000   10.91058             7.20464
1419.20773  1411.58454  207.00000  18.52099             14.29685
1422.67901  600.64609   243.00000  20.28991             15.51132
1425.01107  943.35055   271.00000  21.10035             16.65747
1425.79054  1227.38851  296.00000  21.83400             17.64201
1426.91281  1192.66485  367.00000  24.95776             19.22244
1427.67273  1333.46545  275.00000  23.89958             14.88797
1426.85000  767.38000   200.00000  19.52690             13.17686
1422.91489  1107.51064  47.00000   8.47421              7.10901
1428.18440  236.19504   282.00000  21.71073             16.60734
1430.95167  791.69888   269.00000  20.78903             16.50665
1428.75301  839.27108   166.00000  15.93373             13.26516
1431.91351  1287.45405  185.00000  16.95960             13.94592
1433.95926  1488.50370  270.00000  21.82850             15.84628
1435.69836  511.39672   305.00000  24.63327             15.85865
1435.63274  730.52212   226.00000  21.90772             13.19060
1433.37662  53.58442    77.00000   10.10617             9.87461
1438.95522  972.68657   201.00000  20.60007             12.65161
1443.83163  775.93878   196.00000  17.08345             14.76791
1444.56034  1033.38362  232.00000  18.52507             16.01708
1445.70400  478.39600   250.00000  20.96046             15.36164
1448.01544  1282.96911  259.00000  23.08503             14.45230
1450.03704  751.09465   243.00000  23.75574             13.06054
1446.47170  1114.55472  265.00000  21.98022             15.53989
1453.64120  1364.63455  301.00000  23.83907             16.62226
1452.70435  1485.95217  230.00000  19.90707             14.84923
1453.91463  941.88211   246.00000  20.69516             15.42427
1453.45000  571.61071   280.00000  20.90263             17.65667
1454.00515  609.21649   194.00000  19.02500             13.36328
1453.76190  1057.69048  126.00000  15.14627             10.80379
1459.87234  1067.04965  282.00000  25.00871             14.69001
1458.97590  1387.52610  249.00000  25.07674             12.68860
1457.26154  1148.78974  195.00000  18.27270             13.66181
1460.19574  1008.15319  235.00000  21.67640             13.82275
1462.34513  1031.33186  226.00000  22.30797             13.46761
1454.17391  1129.00000  23.00000   5.40531              5.36036
1458.77778  1165.19048  63.00000   10.05278             8.01088
1466.91915  923.56170   235.00000  21.28004             14.05213
1468.01149  982.01916   261.00000  25.55134             13.37904
1471.08278  1214.55629  302.00000  23.94190             16.48928
1469.41631  1049.67811  233.00000  20.30302             14.62933
1471.95041  1088.96419  363.00000  27.99187             17.91436
1466.16296  604.78519   135.00000  16.44780             10.50200
1464.58140  709.97674   43.00000   7.69171              7.07285
1469.65464  996.12371   194.00000  19.43618             12.77398
1475.41288  1305.32576  264.00000  39.03108             9.06362
1470.81333  472.44889   225.00000  20.31535             14.17112
1469.43210  779.30247   162.00000  17.38177             12.23194
1473.29412  1140.99346  306.00000  25.49304             15.55639
1471.86344  1315.14978  227.00000  21.73488             13.63961
1473.56371  1179.60618  259.00000  20.72621             15.91826
1475.17949  522.78632   234.00000  20.10045             15.05970
1479.27083  1248.80729  192.00000  18.64881             13.21126
1480.37791  1417.30233  172.00000  18.54050             11.82588
1481.23158  779.95789   190.00000  17.39765             14.24941
1486.39506  689.34156   243.00000  21.36574             14.55561
1488.73659  1356.29756  205.00000  17.71400             14.74662
1494.71610  590.62288   236.00000  24.52257             12.52903
1495.57143  1087.94958  238.00000  20.04248             15.19482
1495.48727  1398.78909  275.00000  19.66741             17.84658
1494.94619  1029.79372  223.00000  17.20341             16.54880
1494.98995  1371.81910  199.00000  17.15176             14.77895
1498.40964  493.89960   249.00000  21.61844             15.03402
1499.00939  977.32394   213.00000  20.27079             13.48957
1498.90945  1225.74803  254.00000  21.72154             15.04756
1499.25352  939.56338   142.00000  15.53593             11.71343
1504.59722  554.71759   216.00000  16.85759             16.33293
1505.99569  525.42672   232.00000  19.98774             14.83439
1509.08416  763.43564   202.00000  20.87216             12.39991
1504.20930  1292.22093  86.00000   11.19602             9.81005
1509.75138  1367.58011  181.00000  17.54944             13.20252
1510.50829  1126.43646  181.00000  17.96554             12.97521
1512.56970  941.32121   165.00000  15.82675             13.32589
1512.41256  1388.55157  223.00000  17.51693             16.43922
1519.92879  1285.95046  323.00000  34.10538             13.11618
1516.53922  1297.13725  204.00000  18.86656             13.95376
1515.78947  1626.40351  228.00000  17.84447             16.41397
1522.24845  1022.30435  322.00000  27.56887             14.99720
1517.75500  718.68500   200.00000  18.90177             13.51796
1517.39286  970.63776   196.00000  16.36665             15.37200
1523.76471  796.26471   272.00000  23.81003             14.93571
1521.04433  1044.85714  203.00000  19.29633             13.39741
1523.54417  1358.63251  283.00000  21.12879             17.97969
1531.81749  1431.01521  263.00000  25.97912             14.24878
1541.74671  625.67763   304.00000  27.82550             14.35086
1537.52966  716.85169   236.00000  20.08633             15.01989
1535.85311  1229.46328  177.00000  16.58667             13.70126
1544.41228  502.50439   228.00000  18.34075             15.95780
1544.96078  1772.50327  153.00000  15.61077             12.51475
1549.54770  651.20141   283.00000  24.41985             15.11335
1549.60816  737.57143   245.00000  23.36558             13.48019
1551.69434  1332.26038  265.00000  31.11789             11.15632
1546.26168  1237.12150  107.00000  12.63754             10.78629
1551.18876  980.48594   249.00000  21.78777             14.71267
1551.99194  1422.84274  248.00000  25.58778             12.50152
1550.10417  1641.50000  192.00000  17.38779             14.21822
1552.60825  1450.49141  291.00000  20.58356             18.33230
1555.77660  520.70745   188.00000  18.66858             12.82439
1557.29730  1247.66486  185.00000  18.47325             13.03978
1557.89286  757.08929   224.00000  21.77622             13.22009
1554.94631  1354.16779  149.00000  15.12767             12.59485
1563.96037  927.90549   328.00000  27.01901             15.67195
1558.83929  1656.85119  168.00000  15.32533             13.97906
1560.42714  1045.09045  199.00000  17.46610             14.54938
1558.87586  1403.51034  145.00000  15.15702             12.30429
1559.82243  1771.44860  107.00000  13.71182             9.95504
1561.23729  1821.10169  177.00000  19.13572             11.81164
1561.51899  1238.58228  79.00000   13.23830             7.71159
1563.12048  1738.61446  83.00000   12.20132             8.76118
1565.97059  1685.48039  102.00000  13.25010             9.99722
1569.94323  1357.36245  229.00000  19.39352             15.08318
1567.96907  1636.30412  194.00000  18.67352             13.57645
1570.29091  689.30909   220.00000  17.78057             15.82017
1569.61722  591.65072   209.00000  20.98361             12.79146
1570.03030  663.06667   165.00000  16.26291             13.01800
1573.91262  778.12136   206.00000  17.61204             14.91145
1568.10526  1589.18421  38.00000   7.51575              6.46070
1575.28682  1464.37209  258.00000  19.03918             17.50995
1574.04712  1410.13613  191.00000  16.29475             14.95937
1580.87391  525.40870   230.00000  18.75235             15.81182
1581.88199  1710.31056  161.00000  14.83867             14.01190
1588.47872  991.67376   282.00000  26.12872             13.79813
1590.80867  569.72959   392.00000  26.53327             19.39665
1583.86486  1687.90541  74.00000   13.41497             7.70629
1588.28662  967.97452   157.00000  15.50545             12.94728
1598.03030  1253.62338  231.00000  22.61995             13.25840
1600.00448  1536.28251  223.00000  27.43071             11.53669
1601.70312  1320.41146  192.00000  21.62544             12.36480
1600.74737  711.69474   95.00000   11.93063             10.19342
1607.52610  1271.95181  249.00000  21.37961             14.85042
1605.65152  1846.05303  132.00000  14.73274             11.56748
1610.38683  595.07819   243.00000  19.88683             16.11626
1609.63784  689.95676   185.00000  17.51846             14.08515
1617.85965  732.50877   171.00000  17.77668             12.29657
1615.92222  1326.54444  180.00000  18.89284             12.27821
1618.88442  707.00503   199.00000  18.01043             14.17454
1620.11969  827.65251   259.00000  21.29171             15.56876
1621.26027  535.71507   365.00000  28.85724             16.34927
1619.75676  720.00000   74.00000   12.67306             7.42264
1623.87500  765.28750   240.00000  19.80640             15.45964
1632.77211  738.32313   294.00000  21.52498             17.65033
1632.30622  963.34450   209.00000  19.48477             13.77977
1634.44615  694.80000   195.00000  20.83079             12.23685
1638.40110  1738.15934  182.00000  15.86875             14.72287
1638.68000  1686.83200  125.00000  14.99720             10.75406
1640.25333  1011.12667  150.00000  15.86061             12.22282
1640.51701  1049.70748  147.00000  16.16715             11.65364
1641.14615  810.28462   130.00000  15.12926             11.06582
1645.15287  800.18471   157.00000  17.66204             11.61150
1646.57759  1570.51724  116.00000  13.61766             11.00986
1648.62346  825.10494   162.00000  15.80069             13.09951
1652.38551  587.04638   345.00000  24.80229             18.03409
1650.86224  852.57143   196.00000  16.90782             14.80022
1649.03371  673.29213   89.00000   11.30072             10.14889
1653.14468  1070.38298  235.00000  19.09210             15.78342
1654.39834  1559.12863  241.00000  20.39202             15.24628
1655.62703  712.49189   185.00000  20.27706             11.82750
1655.61224  502.52381   147.00000  14.36631             13.11944
1660.49738  834.20419   191.00000  19.41137             12.61835
1653.00000  1038.76190  21.00000   6.28640              4.44574
1662.25000  760.89035   228.00000  19.44604             15.23705
1657.02174  660.34783   46.00000   8.30025              7.01160
1663.71204  1145.58115  191.00000  18.88112             13.02105
1662.23077  1607.92899  169.00000  15.38204             14.08002
1665.86885  1088.72131  61.00000   9.61380              8.11139
1672.31220  820.04390   205.00000  16.96032             15.40625
1673.45902  559.65027   183.00000  17.24459             13.55604
1678.27168  1137.80347  173.00000  17.47296             12.72364
1677.05714  930.22143   140.00000  13.64581             13.20761
1682.00431  573.25000   232.00000  21.55291             13.71845
1690.50664  698.28571   602.00000  34.84902             23.21616
1685.77199  625.43648   307.00000  23.65256             16.59673
1683.64024  737.85976   164.00000  15.34360             13.67366
1687.87789  942.61716   303.00000  20.91291             18.56326
1685.91732  1091.45669  254.00000  18.80336             17.41647
1688.05735  843.23297   279.00000  20.93964             17.00962
1686.61084  492.01478   203.00000  17.83588             14.54758
1694.28879  475.12500   232.00000  19.98365             14.98621
1692.77095  795.29609   179.00000  16.64356             13.73944
1702.00746  873.88433   268.00000  31.22319             11.79941
1703.09091  575.42688   253.00000  20.08149             16.14981
1704.27273  906.93182   220.00000  19.02301             14.77550
1710.26852  489.95370   216.00000  19.33970             14.32076
1710.05036  1070.37410  278.00000  21.01189             16.92869
1710.64846  853.63481   293.00000  26.70119             14.17733
1713.73485  204.56818   132.00000  16.07674             11.21578
1716.23630  665.39384   292.00000  21.71596             17.15045
1717.90698  1765.98837  172.00000  18.47025             12.06620
1716.47244  691.77953   127.00000  15.04326             10.93561
1719.18981  729.01852   216.00000  19.72233             14.13702
1726.19649  938.16842   285.00000  24.02676             15.43933
1723.25000  703.40909   176.00000  15.87180             14.25894
1729.33186  736.97345   226.00000  21.79438             13.42208
1727.20000  841.64000   250.00000  18.49485             17.34528
1729.76419  794.00873   229.00000  20.35906             14.42182
1734.62559  858.66825   211.00000  18.69363             14.39801
1741.31481  986.53704   270.00000  20.36598             17.09594
1744.62846  471.91304   253.00000  20.95143             15.49819
1748.76754  750.59211   228.00000  19.24674             15.15074
1747.60377  950.38679   212.00000  17.44116             15.48323
1750.67521  639.31197   234.00000  19.44931             15.37066
1753.66421  890.01107   271.00000  19.95983             17.49745
1750.81429  1698.58571  140.00000  16.39133             10.91384
1753.70732  93.99390    164.00000  16.49423             12.79609
1754.31193  519.15596   109.00000  12.79149             10.92470
1756.64516  904.16667   186.00000  16.96551             14.10379
1760.84718  816.48505   301.00000  22.61969             16.97484
1760.25551  1173.47577  227.00000  17.57251             16.49626
1764.09502  920.50226   221.00000  19.27882             14.62538
1764.15753  1767.94521  146.00000  15.20673             12.22990
1767.59836  490.47541   122.00000  16.40853             9.66855
1769.35912  590.74586   181.00000  16.35097             14.31924
1776.59864  1019.52381  294.00000  25.40422             15.40248
1786.53091  1105.77818  275.00000  24.06924             14.64191
1790.71008  917.59244   238.00000  24.09920             12.90035
1792.00712  829.04626   281.00000  20.96687             17.20670
1797.54444  791.72963   270.00000  20.05199             17.18412
1793.92908  980.43262   141.00000  14.29057             12.60512
1796.69424  1147.64388  278.00000  20.98141             16.95010
1801.21549  1028.79798  297.00000  27.53990             14.03301
1808.35786  1169.61873  299.00000  27.16368             14.50247
1802.30000  1258.67500  200.00000  19.52691             13.64587
1801.60169  1011.65254  118.00000  14.16384             10.64371
1805.54037  948.80745   161.00000  14.57087             14.21973
1809.23358  778.45255   137.00000  13.65405             12.86940
1812.88344  919.24540   163.00000  15.78103             13.18807
1814.87805  891.69106   246.00000  19.64848             16.05913
1816.06271  1277.28053  303.00000  24.91856             15.63616
1824.47138  852.40067   297.00000  25.83288             15.26930
1833.23780  826.25000   164.00000  16.56081             12.73867
1841.04428  1082.52399  271.00000  25.82335             13.51204
1841.30068  1280.50000  296.00000  22.07068             17.29023
1839.31142  916.57785   289.00000  23.73889             15.73768
1843.80102  991.45408   196.00000  20.03281             12.47933
1844.59322  1013.52542  118.00000  13.58920             11.24148
1846.20896  969.64925   134.00000  14.44506             11.88572
1855.27928  835.14865   222.00000  21.69007             13.18246
1854.12162  1182.14414  222.00000  18.86391             15.17164
1864.30601  1095.92896  183.00000  17.00793             14.10164
1871.24113  1115.63830  282.00000  22.27726             16.69049
1867.85507  244.17391   69.00000   10.17856             8.90107
1875.63983  892.80085   236.00000  22.21099             13.57325
1873.62500  947.81818   176.00000  18.30625             12.34034
1874.21134  1046.60825  194.00000  17.06724             14.58897
1880.69378  1065.09091  209.00000  18.18514             14.79665
1880.47059  93.19608    102.00000  12.78539             10.53393
1887.56688  257.46497   157.00000  15.63998             12.99634
1892.07254  280.37824   193.00000  17.68198             14.32995
1894.75587  1009.92019  213.00000  24.56573             11.90632
1890.89474  882.28571   133.00000  14.42902             11.77756
1895.89683  1200.78571  252.00000  28.63168             11.68454
1892.86517  1223.64045  89.00000   14.40556             7.93847
1903.28230  1086.85646  209.00000  18.98217             14.12270
1906.06780  925.35593   177.00000  16.79418             13.44466
1909.87427  1044.82456  342.00000  22.60416             19.36241
1921.72956  289.06918   159.00000  15.87065             12.80164
1924.43056  1097.50463  216.00000  19.66905             14.10591
1930.23636  1171.85455  275.00000  22.73166             15.58844
1928.98438  909.27604   192.00000  18.34708             13.41622
1941.37121  1198.10227  264.00000  23.22594             15.02530
1944.63462  1123.38782  312.00000  28.34167             14.09681
1946.58150  1074.87665  227.00000  18.54807             15.73089
1948.15764  1382.63054  203.00000  21.54942             12.12239
1975.55000  1095.12000  200.00000  18.25735             14.07404
1987.99515  1064.00485  206.00000  19.08757             14.51126
1987.78947  676.76754   228.00000  18.32124             15.94576
1990.08898  1013.75424  236.00000  19.78943             15.26370
1999.15058  1208.73745  259.00000  31.72994             11.23116
2006.86996  1095.65471  223.00000  19.95049             14.29029
2007.60000  668.80714   140.00000  15.05488             11.89578