# Filename: Nuclei_ctrl_pfa_006.npz
# Voxel size (nm): (108, 108)
# Area quantity: voxels
# Num nuclei detected: 389
Y           X           AREA       MAJOR_AXIS_LENGTH    MINOR_AXIS_LENGTH
367.34021   722.00687   291.00000  23.74601             15.78875
374.92652   667.33866   313.00000  30.20303             13.50148
372.61176   776.65098   255.00000  24.27308             13.55982
385.13333   769.94815   135.00000  14.40677             12.00983
401.27124   628.38562   306.00000  24.32265             16.14120
409.78481   811.24367   316.00000  25.98952             15.58214
420.37959   593.09388   245.00000  20.66981             15.17981
426.24121   529.47236   199.00000  19.82705             12.97757
442.84318   851.77597   491.00000  38.27711             16.46265
443.39216   390.37647   255.00000  22.21985             14.90772
446.61847   430.82329   249.00000  19.30042             16.95134
451.69281   408.30392   306.00000  21.92381             18.05057
456.36226   608.57358   265.00000  21.66003             15.74443
457.21771   677.12915   271.00000  21.15070             16.40737
466.77519   529.94186   258.00000  18.87980             17.45938
477.48913   376.34783   184.00000  16.92857             13.86295
479.44510   702.32047   337.00000  26.81220             16.95506
481.62950   667.73741   278.00000  19.92273             17.92433
483.36481   610.31330   233.00000  19.18981             15.47973
483.70115   563.50192   261.00000  20.72680             16.11089
485.04682   755.16054   299.00000  23.93403             15.96104
492.65041   472.67886   246.00000  27.38029             12.45017
495.31629   632.03195   313.00000  21.31355             18.80624
493.33871   731.73656   186.00000  17.27417             13.78448
495.34177   379.93671   237.00000  20.95444             14.47447
496.59119   588.57233   159.00000  15.26552             13.30645
501.99286   419.53214   280.00000  24.42654             14.84052
501.08597   678.50679   221.00000  20.33411             14.09333
500.17857   553.80714   140.00000  14.60283             12.25656
503.28889   570.20889   225.00000  18.34850             15.66544
509.18095   666.09048   210.00000  16.95732             15.82356
511.36975   596.53782   238.00000  22.29247             14.01182
515.17623   710.18852   244.00000  21.39318             14.57892
511.96815   844.63057   157.00000  16.43713             12.20747
514.03704   525.94444   54.00000   9.64568              7.07111
520.93878   433.80612   196.00000  19.57435             12.86744
522.95775   474.49296   213.00000  17.88994             15.24804
525.46429   560.88889   252.00000  19.90564             16.12820
525.60507   682.31159   276.00000  19.81576             18.02043
528.01050   382.52231   381.00000  25.03143             19.54738
527.97942   641.06584   243.00000  23.23508             13.39882
529.91630   867.40088   227.00000  23.59482             12.25724
532.77358   492.74292   424.00000  25.95324             21.50526
523.52632   539.07018   57.00000   9.13907              7.90080
534.24735   760.28975   283.00000  20.86447             17.30556
534.06838   606.95299   234.00000  18.79212             16.01423
537.33214   515.18214   280.00000  21.07038             17.11558
540.20714   858.85357   280.00000  28.08144             12.86202
542.38424   635.82266   203.00000  19.52801             13.31499
546.32134   680.34190   389.00000  23.03621             21.62405
547.01521   530.35741   263.00000  21.65587             15.54004
545.79461   738.47811   297.00000  21.71279             17.51018
547.11397   346.79779   272.00000  19.89574             17.50976
545.74752   402.77723   202.00000  16.97379             15.19175
550.07692   720.23077   273.00000  22.56818             15.47021
550.98195   604.28159   277.00000  20.00180             17.81525
553.00271   448.91057   369.00000  30.33899             16.19001
555.70000   479.62963   270.00000  21.10069             16.37388
554.67308   495.88462   52.00000   9.27416              7.17297
565.62362   923.63100   271.00000  21.69712             16.04997
566.38636   410.47727   176.00000  16.18890             13.88509
570.42500   360.55417   240.00000  17.87738             17.13075
565.76923   423.15385   52.00000   8.87086              7.48846
573.15596   1015.51376  218.00000  17.26270             16.21619
574.85328   675.47490   259.00000  19.44219             16.97085
575.65022   543.97309   223.00000  19.53110             14.57783
571.98387   659.06452   62.00000   9.69152              8.10836
579.37069   486.65517   232.00000  19.35347             15.34311
582.00000   1079.33333  276.00000  23.22393             15.22684
579.90909   568.56818   176.00000  17.16246             13.07905
585.78276   514.17241   290.00000  27.41224             14.21996
581.61290   1112.02867  279.00000  22.78343             15.70047
585.93919   1051.07095  296.00000  22.07294             17.24692
585.12891   972.73047   256.00000  20.16616             16.32553
588.23232   377.87879   198.00000  21.72724             11.63936
587.53106   931.28571   322.00000  27.08314             15.53724
595.66975   660.56173   324.00000  22.89752             18.21737
596.76613   1214.87903  248.00000  18.99592             16.78269
598.63684   420.53684   190.00000  17.26577             14.05303
600.57282   435.23786   206.00000  18.55451             14.15937
599.28108   475.12973   185.00000  15.76308             15.01072
601.36475   563.70082   244.00000  20.48453             15.25855
606.52985   457.25000   268.00000  20.86399             16.61439
607.62500   327.03261   184.00000  16.93062             14.13752
611.08134   348.27751   209.00000  17.53746             15.28043
616.35271   1217.50000  258.00000  18.57924             17.72703
620.07558   383.81977   172.00000  16.33882             13.43249
623.81938   570.54185   227.00000  19.75622             14.66802
631.41324   500.66210   438.00000  32.04304             18.59025
626.52078   468.37673   361.00000  31.88510             15.90342
627.01818   310.43636   220.00000  19.07923             14.75325
638.98655   623.63229   446.00000  30.04997             19.70224
633.03715   681.64706   323.00000  24.08798             17.45676
640.13649   1255.88579  359.00000  33.85818             14.10001
636.49123   698.64035   114.00000  13.81953             10.60961
640.69778   297.14222   225.00000  19.32511             14.89308
646.10469   451.66426   277.00000  19.96982             17.73878
642.80597   689.59701   67.00000   10.01104             8.69958
649.97093   420.95930   172.00000  15.74368             13.96020
650.56548   514.45833   168.00000  16.12156             13.33091
656.51053   502.55263   190.00000  17.55169             14.04420
655.87006   534.52542   177.00000  16.30753             13.87022
667.18015   617.76471   272.00000  20.44448             16.95584
670.56667   664.78750   240.00000  23.53357             13.07839
670.89922   539.20543   258.00000  20.71112             16.10944
671.45263   1393.23158  95.00000   12.97483             9.33030
675.46245   292.03953   253.00000  19.05437             17.01052
682.54726   375.66667   201.00000  19.72319             13.03833
692.84293   419.18848   191.00000  18.13221             13.54992
693.99531   606.13615   213.00000  21.78887             13.18948
694.53112   517.26971   241.00000  20.10518             15.48325
697.10288   666.52263   243.00000  20.80696             14.94888
700.05128   593.67949   234.00000  21.31507             14.68004
705.59677   1277.97097  310.00000  22.85886             17.49081
705.10556   625.13333   180.00000  16.24113             14.10542
706.83398   554.87259   259.00000  20.66818             16.03043
709.74000   510.89000   200.00000  17.10458             14.89424
720.86935   621.85427   199.00000  18.60490             13.65249
723.92130   369.45370   216.00000  20.18015             13.86036
724.12903   397.21505   186.00000  19.19144             12.63101
733.03333   525.76667   270.00000  20.95656             16.68512
736.53070   604.00439   228.00000  18.83707             15.42243
740.10152   583.07107   197.00000  18.07798             13.99952
746.86047   402.33488   215.00000  18.54289             14.86527
752.63415   517.77642   246.00000  20.35586             15.48979
753.21818   543.40303   330.00000  22.25979             19.02858
756.68354   529.68354   79.00000   11.44044             8.81815
760.19171   365.91710   193.00000  16.86330             14.58043
765.30882   1309.95221  272.00000  25.54766             13.81990
769.44330   348.16495   194.00000  18.34485             13.62874
774.66807   556.69328   238.00000  22.79250             13.39222
792.04096   1293.89420  293.00000  21.16134             17.70883
802.86400   554.34400   250.00000  20.44190             15.65744
832.24127   530.97143   315.00000  25.81986             15.56461
840.09594   1272.30996  271.00000  22.26325             15.86726
841.21481   1254.74815  270.00000  28.31826             12.34551
853.84586   491.55263   266.00000  22.28141             15.31774
913.59843   1276.33071  254.00000  24.22826             13.42345
913.12281   1304.91579  285.00000  20.64001             17.69666
917.53571   1193.85714  56.00000   8.50857              8.37343
925.27857   1151.88929  280.00000  21.76283             16.57102
931.85266   1292.34483  319.00000  21.95608             18.62871
934.06410   1327.62393  234.00000  18.61741             16.05079
934.86026   1168.19214  229.00000  19.79506             14.78061
935.85965   1242.21754  285.00000  20.91552             17.51857
935.90672   1264.14552  268.00000  19.72223             17.38210
949.25260   1213.81661  289.00000  23.28310             15.97942
954.73413   1295.63889  252.00000  21.43147             15.17145
953.18462   1110.97949  195.00000  18.96327             13.22183
955.23913   1318.60870  276.00000  19.45860             18.22638
962.78614   1268.14458  332.00000  20.90434             20.35742
974.55187   1323.04564  241.00000  21.52998             14.28119
976.75214   1370.05128  234.00000  20.01666             14.91917
976.70539   1288.48548  241.00000  19.22300             16.21501
985.09091   1300.71770  209.00000  18.02623             15.03558
988.54980   1355.86853  251.00000  20.95424             15.30090
1003.70968  1081.93548  341.00000  27.33307             16.19288
1003.31962  1158.30380  316.00000  25.94707             15.71077
1002.00000  1278.38246  285.00000  21.62160             16.78777
1002.80861  1383.10048  209.00000  17.98464             14.91079
1002.41520  1308.05848  171.00000  17.04168             12.84395
1013.56444  1404.08444  225.00000  18.52289             15.64473
1022.54455  1138.85479  303.00000  20.72459             18.73482
1025.39932  1273.03413  293.00000  24.37493             15.69297
1032.46483  1292.36697  327.00000  23.53718             18.13164
1032.32231  1376.04132  121.00000  12.85510             12.02473
1042.32734  1355.54317  278.00000  22.20206             16.03864
1043.48000  1369.55000  100.00000  12.45238             10.29620
1046.72052  1138.80786  229.00000  20.13642             14.84074
1049.33019  1162.18868  212.00000  18.23334             14.87131
1049.10471  1308.95812  191.00000  17.57479             13.88779
1053.25753  1216.33110  299.00000  25.15555             15.45546
1053.44271  1346.41146  192.00000  16.28721             15.12334
1062.25799  1189.91646  407.00000  27.76500             19.02944
1059.57248  1322.34644  407.00000  24.11594             21.66337
1061.17042  1102.01929  311.00000  23.57784             16.94669
1059.68041  1397.98969  194.00000  18.25172             13.58295
1063.68400  1371.69200  250.00000  20.98372             15.30778
1068.27562  1074.04594  283.00000  22.58360             16.02109
1069.17419  1132.66452  310.00000  22.57748             17.67877
1065.29747  1238.50633  158.00000  17.12773             11.78538
1064.67586  1250.22759  145.00000  14.67143             12.72974
1078.23923  1267.00000  418.00000  25.90390             20.72918
1075.76847  1411.22167  203.00000  16.43143             15.94478
1079.05462  1243.22269  238.00000  20.03425             15.21849
1084.86822  1303.88114  387.00000  28.65184             17.27314
1089.35943  1208.98577  281.00000  23.77988             15.21070
1091.14489  1171.01989  352.00000  22.58660             20.28554
1094.93689  1346.75243  206.00000  16.95600             15.53428
1104.38861  1192.33168  404.00000  30.37678             17.41074
1100.07947  1234.70530  302.00000  24.45911             15.89190
1096.64348  1289.10435  115.00000  15.66308             9.72531
1104.69620  1364.35443  474.00000  34.19983             18.05800
1098.96484  1398.67578  256.00000  22.00887             14.88819
1107.98990  1254.71212  198.00000  19.86824             12.76858
1105.55474  1387.45985  137.00000  14.88634             11.78093
1113.42105  1289.67943  209.00000  21.25693             12.98976
1117.91209  1423.07326  273.00000  21.10172             16.61244
1118.58219  1306.94863  292.00000  21.95601             17.17524
1120.99580  1277.45798  238.00000  25.24233             12.05057
1125.48276  1191.10345  29.00000   6.70688              5.47853
1132.62443  1377.33032  221.00000  18.27177             15.43178
1137.63802  1269.47656  384.00000  25.09618             20.44183
1138.12167  1120.85551  263.00000  20.71709             16.51579
1149.25414  1089.13812  181.00000  18.98321             12.19096
1153.47419  1157.82581  310.00000  26.96317             14.94940
1157.18421  1232.81579  38.00000   8.69005              5.58451
1160.32468  1256.92532  308.00000  26.22401             15.02313
1165.98266  1043.62428  346.00000  23.18703             19.54703
1163.65027  1309.73224  183.00000  17.34473             13.57801
1166.99327  1350.36700  297.00000  20.72785             18.44854
1163.16667  1069.93750  48.00000   8.00000              7.64808
1172.39130  1161.43913  230.00000  19.82903             14.92315
1178.30030  1056.99399  333.00000  27.52136             15.73665
1173.52096  1436.59281  167.00000  15.16438             14.17021
1176.91103  1292.12100  281.00000  22.49565             16.22104
1179.75510  1115.84490  245.00000  20.41950             15.39419
1185.14612  1002.50685  219.00000  19.37819             14.39993
1185.72848  1158.95364  151.00000  15.11412             12.95809
1189.61275  1383.61765  204.00000  17.25305             15.10569
1190.83186  1241.04425  226.00000  19.26264             15.11747
1196.76772  1115.42913  254.00000  18.85363             17.31342
1195.41327  1218.41837  196.00000  17.89017             13.96938
1200.69271  1330.58333  192.00000  17.02958             14.43796
1202.97222  1077.84722  216.00000  17.08390             16.12839
1206.26812  1283.64493  276.00000  21.69129             16.29979
1207.93617  1374.33617  235.00000  24.80119             12.59036
1210.38994  1438.30189  318.00000  23.36780             17.94449
1211.87660  1066.03404  235.00000  22.00946             13.70891
1207.39316  1314.29915  117.00000  13.03014             11.69934
1211.65649  1108.83206  262.00000  22.60040             14.82665
1216.41758  963.85989   364.00000  27.64763             17.63173
1225.22525  1055.03960  404.00000  29.81097             17.91768
1215.68333  1305.87222  180.00000  18.67684             12.38184
1215.71038  1325.17486  183.00000  18.49196             12.87849
1218.14343  1028.41833  251.00000  18.77775             17.13957
1218.37607  1139.28205  234.00000  20.96663             14.33458
1223.31343  1379.54726  201.00000  18.08559             14.20813
1227.90244  1233.53354  328.00000  25.62458             16.65990
1225.87097  1214.33548  155.00000  16.40891             12.04547
1230.50000  1409.31624  234.00000  17.79172             16.90926
1236.31081  1128.61149  296.00000  19.89123             19.42692
1238.63636  1259.54959  242.00000  18.79730             16.49575
1240.30159  971.36508   252.00000  23.22706             14.12961
1239.16350  1215.93536  263.00000  21.12406             16.01337
1240.99638  1287.40942  276.00000  22.80310             15.58531
1248.40892  1364.04461  269.00000  20.67220             16.63755
1255.28000  1181.87600  250.00000  21.51321             14.96240
1254.84026  1345.34505  313.00000  21.42561             18.80853
1253.34375  1056.57143  224.00000  20.46028             14.17408
1249.28571  1313.00000  42.00000   7.87232              6.81430
1262.96552  1267.12467  377.00000  23.33780             20.81043
1265.13793  1118.96552  232.00000  18.90247             15.66109
1269.56589  982.49612   258.00000  19.35509             17.04920
1269.84014  1075.46939  294.00000  23.11373             16.49897
1270.12889  1203.82222  225.00000  17.51457             16.39152
1275.06098  1188.37805  246.00000  18.71828             16.91476
1274.83598  1331.88360  189.00000  17.56900             13.74350
1280.40134  1101.89298  299.00000  21.51143             17.78794
1286.12545  947.16129   279.00000  20.73115             17.16886
1287.82873  1313.37569  181.00000  22.62613             10.40528
1289.77917  1430.03750  240.00000  20.20310             15.25665
1295.37917  1239.05833  240.00000  19.47797             15.79622
1295.74368  1221.42960  277.00000  22.93474             15.63161
1297.64228  1342.82927  246.00000  20.63543             15.19596
1302.09746  1307.63983  236.00000  20.73298             14.56432
1304.57419  1187.00645  310.00000  21.00947             18.88464
1305.31250  1090.89338  272.00000  21.51283             16.25661
1309.96992  947.78947   266.00000  21.89849             15.99916
1306.60268  1428.97768  224.00000  18.73939             15.32557
1310.39456  1007.01361  441.00000  27.73767             20.28664
1311.15571  969.82353   289.00000  21.33429             17.25656
1310.28144  1275.31737  167.00000  16.00666             13.32676
1312.52050  1362.47003  317.00000  21.57277             19.06277
1320.12121  1030.66970  330.00000  29.89291             14.14375
1319.21306  1056.67698  291.00000  20.83272             17.89317
1320.66102  1420.75424  236.00000  19.66538             15.40944
1322.64167  1349.95833  240.00000  26.79156             11.65032
1326.85786  1268.97257  401.00000  26.56183             20.01220
1330.30102  1336.29592  196.00000  19.70925             12.71190
1332.78966  963.22414   290.00000  19.74309             18.84918
1330.20179  1205.64126  223.00000  20.64160             13.87915
1338.37500  1054.37500  256.00000  20.37504             16.26676
1340.27143  1231.85238  210.00000  17.32903             15.66452
1339.37629  1360.93814  194.00000  17.99311             13.81258
1346.74400  1293.45067  375.00000  27.28877             17.82749
1348.22261  1376.28269  283.00000  20.92557             17.35168
1349.23214  951.64286   168.00000  16.54157             12.98156
1350.54913  1318.87861  173.00000  16.89408             13.15550
1352.77686  1443.13223  242.00000  20.65463             15.06610
1353.68421  1413.71930  228.00000  20.37267             14.40978
1355.56923  1338.16410  195.00000  16.45471             15.10499
1357.96522  1272.91304  230.00000  20.08236             14.75252
1368.62782  1084.58647  266.00000  24.50881             13.89614
1375.61794  918.00332   301.00000  19.67732             19.50609
1376.52778  1220.35317  252.00000  21.17822             15.37723
1380.17455  1050.37455  275.00000  23.91132             14.87513
1380.81961  1247.37647  255.00000  21.94954             15.07348
1383.00426  994.12340   235.00000  23.75343             13.59688
1381.13684  1390.63158  190.00000  16.66643             14.60248
1382.63755  1006.96507  229.00000  18.16062             16.88856
1383.58852  1275.85646  209.00000  18.96379             14.23440
1387.81356  955.01695   177.00000  15.88050             14.31823
1390.36571  1323.74857  175.00000  17.46307             12.82869
1396.47143  1212.88571  280.00000  19.40271             18.60872
1397.59236  927.61146   314.00000  22.68156             17.72584
1403.64935  963.41126   231.00000  18.83303             15.68476
1409.69707  1360.77199  307.00000  23.61079             16.98656
1414.42700  1397.60331  363.00000  29.02728             16.10378
1408.44762  1413.74286  105.00000  13.55688             10.10349
1410.70281  1107.88755  249.00000  21.96867             14.64120
1412.97095  1316.18257  241.00000  21.24140             14.56787
1415.87755  1290.88980  245.00000  19.81413             15.98094
1422.90681  1129.51971  279.00000  21.65520             16.52880
1424.34106  919.08278   302.00000  22.04547             17.75701
1427.16268  1353.98565  209.00000  20.72018             12.96401
1428.76974  1436.40461  304.00000  24.92327             15.58152
1427.28070  1274.35088  171.00000  15.19019             14.43006
1438.51383  1225.35573  253.00000  19.74600             16.52464
1441.92444  1399.00444  225.00000  19.35982             14.81873
1449.93443  1363.61202  183.00000  19.66558             12.00869
1449.65900  933.70115   261.00000  18.94184             17.73803
1452.24260  1373.62722  169.00000  20.54860             10.88120
1454.43581  1189.63176  296.00000  22.36671             16.85975
1455.93671  1239.85759  316.00000  22.40220             18.05704
1456.49167  1156.77500  240.00000  20.06388             15.27840
1455.07097  1335.85161  155.00000  15.45825             12.76651
1457.29952  1266.78261  207.00000  18.44838             14.33205
1459.67713  1401.12556  223.00000  20.18665             14.11725
1462.73529  910.28758   306.00000  22.07577             17.97585
1466.86590  1208.03065  261.00000  20.46111             16.32752
1477.09819  1245.37209  387.00000  32.14773             16.17407
1477.89767  1281.48837  215.00000  18.37477             14.97791
1481.34155  1337.77465  284.00000  21.29807             17.22741
1482.79932  1445.50340  294.00000  22.49675             16.88859
1485.34185  908.89457   313.00000  21.50397             18.59999
1485.17466  1214.33904  292.00000  24.39259             15.30835
1488.28436  1264.74882  211.00000  22.07121             12.21137
1483.69903  1318.29126  103.00000  13.68189             9.68530
1485.66026  1399.57051  156.00000  15.40422             12.92043
1494.93820  1288.50562  178.00000  17.19286             13.42922
1504.82847  1350.36131  274.00000  22.28199             15.78288
1507.04219  1389.90717  237.00000  20.12788             15.08015
1515.60490  1241.67302  367.00000  22.88820             20.82151
1515.49593  1369.22358  246.00000  18.61201             16.97477
1519.72797  1290.16858  261.00000  22.47850             14.90884
1525.11176  1216.88529  340.00000  22.03844             19.85987
1528.29640  1346.63158  361.00000  23.70728             19.61894
1532.13228  1325.85714  189.00000  20.57222             11.86019
1534.87554  1386.83262  233.00000  19.81022             15.08292
1540.31004  1287.84716  229.00000  20.02119             14.62068
1542.21379  1417.81724  290.00000  24.58761             15.37858
1552.22764  932.72358   492.00000  32.93120             19.48411
1559.59880  1404.26347  167.00000  20.55747             10.72034
1564.84274  1238.34274  248.00000  20.63286             15.44638
1570.44907  1272.24537  216.00000  18.28970             15.12787
1572.94937  1293.35443  237.00000  19.14366             15.81995
1578.30686  1440.02527  277.00000  22.89161             15.50785
1584.89051  1337.24088  274.00000  22.76709             15.47352
1584.60656  1391.71721  244.00000  18.91530             16.44751
1586.33193  1462.44118  238.00000  18.62556             16.35560
1595.36996  1372.71429  273.00000  22.02653             15.82536
1599.29803  1324.30788  406.00000  24.76656             21.52864
1599.60104  921.40933   193.00000  16.74164             14.72662
1606.67635  937.28216   241.00000  19.15696             16.04101
1611.75097  1229.71595  257.00000  21.75093             15.28990
1621.68269  1288.99359  312.00000  22.10480             18.06178
1619.67068  1384.48996  249.00000  20.70019             15.50380
1632.91552  1267.35560  509.00000  30.58536             22.95468
1631.00858  912.93991   233.00000  20.89050             14.38139
1645.16667  1380.42544  228.00000  18.46891             15.72732
1648.72727  1289.10545  275.00000  21.27050             16.54398
1657.24521  1237.71264  261.00000  20.79210             16.08726
1664.06957  913.78261   230.00000  18.64396             15.83239
1664.40889  1360.26667  225.00000  18.28669             15.82535
1665.10667  1343.85333  225.00000  19.48413             14.82109
1667.29801  899.45033   151.00000  14.91080             12.95825
1670.39442  1274.89243  251.00000  18.71897             17.17804
1674.86700  1214.02463  203.00000  18.85371             14.02140
1683.46899  1192.13178  258.00000  20.15893             16.38463
1689.39216  1176.55882  204.00000  17.87706             14.59024
1693.76689  1328.29054  296.00000  21.44571             17.72682
1700.92131  900.91803   305.00000  21.55904             18.18371
1719.07345  910.97740   177.00000  17.23466             13.16054
1720.28063  1172.14625  253.00000  18.29371             17.75522
1722.88811  1276.33916  286.00000  20.48553             17.92471
1727.73684  1316.84211  38.00000   7.60693              6.39048
1749.35034  1275.93197  294.00000  21.49084             17.49627
1764.44915  1284.26695  236.00000  19.37748             15.54031