# Filename: Nuclei_416_ctrl_60x_006.npz
# Voxel size (nm): (108, 108)
# Area quantity: voxels
# Num nuclei detected: 1517
Y           X           AREA       MAJOR_AXIS_LENGTH    MINOR_AXIS_LENGTH
12.38286    603.21143   175.00000  18.94119             11.81377
26.20312    591.59375   128.00000  17.03365             9.88959
42.72263    1153.43066  137.00000  14.89418             11.81648
49.33173    626.12019   208.00000  25.03380             11.05622
73.69576    781.02743   401.00000  27.26439             18.99777
73.85159    1266.16254  283.00000  20.69556             17.58673
72.60714    1704.29592  196.00000  19.47620             12.96427
73.28947    1482.76316  76.00000   11.11385             8.92848
78.65663    1155.63253  166.00000  17.35507             12.46132
77.55752    1438.80531  113.00000  13.82897             10.51561
78.93077    738.06923   130.00000  14.89989             11.16560
79.03922    980.89542   153.00000  15.45652             12.68037
84.10465    1497.56977  86.00000   11.65864             9.45539
91.43478    602.38647   207.00000  18.50953             15.00153
93.17376    1056.01773  282.00000  24.93998             16.72575
90.56173    464.97531   162.00000  16.01917             13.36873
90.92537    891.70149   67.00000   11.49974             7.42541
95.75460    1304.64417  163.00000  17.50051             12.00998
92.65574    1533.45902  61.00000   10.31436             7.51517
96.19048    912.88690   168.00000  17.49058             12.94895
96.25210    1462.07563  119.00000  15.80006             9.67397
101.30601   537.82514   183.00000  22.34481             10.62272
108.90196   525.51634   153.00000  19.33449             10.42401
108.74719   824.16292   178.00000  17.01219             13.88933
111.98276   948.22414   174.00000  16.85255             13.21307
113.44720   1165.54658  161.00000  14.55494             14.14038
116.14689   595.66102   177.00000  15.34679             14.73030
117.65728   1324.94836  213.00000  17.72301             15.35040
121.84974   702.61658   193.00000  17.41580             14.47554
133.17222   598.06111   180.00000  15.84281             14.84827
140.93694   1194.40090  222.00000  19.60175             14.43535
140.82581   847.96129   155.00000  18.08722             11.13354
143.14397   680.23346   257.00000  20.33605             16.15285
141.88211   1000.83740  246.00000  22.37529             14.12955
146.00386   882.55598   259.00000  22.08521             15.03536
160.18333   973.78667   300.00000  20.66742             18.57647
158.26882   861.07527   93.00000   13.32399             9.20838
164.88845   795.79681   251.00000  24.62354             13.21568
162.22034   929.18644   295.00000  22.21034             16.98369
161.64407   1039.75847  236.00000  18.21903             16.67500
163.52381   1677.81481  189.00000  16.67715             14.43770
170.84457   1193.86510  341.00000  28.47080             15.41592
172.57547   1008.15094  212.00000  18.92930             14.44114
170.51163   1658.39535  129.00000  15.03218             11.04305
173.52066   648.68182   242.00000  19.28796             16.16038
176.76724   1061.37500  232.00000  20.76279             14.34777
177.62896   756.04525   221.00000  18.97956             14.95098
180.77857   888.79643   280.00000  22.76608             15.75077
180.10471   635.00524   191.00000  16.91992             14.47551
183.03719   1257.68595  242.00000  20.76201             14.86245
183.45122   611.27236   246.00000  18.32178             17.13166
189.16609   1557.72318  289.00000  22.99412             16.05821
188.36957   1646.42029  138.00000  16.36782             10.77350
190.42199   685.91844   282.00000  21.21006             17.00898
189.42778   856.96667   180.00000  19.00534             12.23594
192.46753   1382.29221  154.00000  19.64086             10.26008
191.08021   582.33155   187.00000  17.23587             13.88471
197.46635   1616.48558  208.00000  20.66759             12.87448
193.87143   1671.94286  140.00000  15.93402             11.42261
196.44444   1635.48765  162.00000  15.50243             13.44832
198.66216   1056.65315  222.00000  18.29003             15.46031
194.47458   769.06780   59.00000   9.60136              7.80273
198.46364   329.78182   110.00000  13.92880             10.27824
202.88732   568.84507   213.00000  23.51582             11.96381
204.12760   907.27300   337.00000  23.47300             18.38507
207.97297   1081.11892  185.00000  22.38190             10.55445
206.83810   725.25238   210.00000  18.35102             14.71545
208.92486   883.93642   173.00000  16.93084             13.04110
212.02990   596.55482   301.00000  23.43600             17.03369
214.66807   1369.83193  238.00000  21.48689             14.40930
211.46341   1570.78049  123.00000  13.72155             11.69948
213.63592   1096.24757  206.00000  17.29098             15.23595
215.90798   970.30061   163.00000  16.33990             12.76462
219.61988   862.29240   171.00000  20.38708             12.41616
222.79909   1061.08676  219.00000  22.21531             12.77971
225.19841   801.62698   252.00000  22.47989             14.51399
225.50472   916.24528   212.00000  17.92151             15.11865
226.41453   1042.13248  234.00000  19.70758             15.20571
225.19753   986.04938   81.00000   12.07900             8.52606
229.05825   405.02913   103.00000  13.06443             10.97793
234.34630   1277.03113  257.00000  24.78578             13.23166
230.10286   1536.70286  175.00000  15.79240             14.10778
231.52838   1445.86900  229.00000  20.35664             14.44916
229.42593   1012.46296  54.00000   8.46867              8.12094
233.42069   1571.00690  145.00000  14.73940             12.53301
232.62821   884.75641   78.00000   11.80899             8.53061
241.46614   1215.98008  251.00000  19.07790             16.87949
242.62209   1046.11628  172.00000  16.00380             13.89932
242.17986   1242.32374  139.00000  15.14422             11.74541
242.98551   1027.00000  69.00000   10.03464             8.83659
249.10427   862.32227   211.00000  19.48011             13.98569
249.48990   487.88384   198.00000  19.93633             12.98102
253.17021   929.25532   188.00000  20.23327             12.04255
252.06633   459.18367   196.00000  19.78571             12.68766
253.07634   1037.29771  131.00000  14.03030             12.06052
257.47755   1194.83265  245.00000  19.39762             16.14155
257.65517   750.50000   232.00000  20.67184             14.60799
257.36296   849.64444   135.00000  14.33513             12.13395
259.07317   195.98374   123.00000  15.02047             11.52952
261.12658   1299.12025  158.00000  16.12871             12.56617
261.48585   953.28302   212.00000  17.85648             15.17984
266.04839   551.58065   248.00000  20.84865             15.19015
264.71730   1617.47257  237.00000  17.90965             16.96646
267.65289   1227.12397  242.00000  21.53163             14.49310
271.35338   817.13534   266.00000  23.27431             14.64621
273.03086   1333.13889  324.00000  24.54477             18.59101
275.16800   1395.88800  250.00000  26.28452             12.26603
267.78571   603.28571   42.00000   8.37500              6.45937
276.61671   633.19597   347.00000  25.42752             17.56661
275.34783   1065.20773  207.00000  22.03628             12.63874
275.17241   1020.94581  203.00000  16.83895             15.56002
280.08021   1000.75401  187.00000  17.34299             13.90302
279.45070   1093.11268  142.00000  15.36048             11.77893
290.69554   1281.95013  381.00000  33.77058             14.82244
282.32317   580.81707   164.00000  16.76570             12.56098
284.76442   527.89904   208.00000  18.96867             14.59400
284.36788   864.69430   193.00000  17.16102             14.35431
282.81203   936.28571   133.00000  15.64544             10.82860
283.83945   658.61009   218.00000  18.70562             14.89745
283.67153   1723.43796  137.00000  14.86404             11.74993
285.25620   946.84298   121.00000  14.71027             10.51789
286.48901   613.65934   182.00000  17.91619             13.74525
286.02963   1053.63704  135.00000  15.12073             11.47998
287.38750   1075.36875  160.00000  15.41934             13.24257
290.04902   1156.51961  204.00000  21.52377             12.30241
288.95580   155.20994   181.00000  15.45341             14.93161
289.28934   183.93909   197.00000  18.79761             13.37063
291.89627   827.19087   241.00000  22.13493             14.13082
291.44672   966.47131   244.00000  18.67598             16.70579
292.92632   705.40526   190.00000  18.43279             13.20294
292.16667   66.95833    96.00000   11.98248             10.26067
294.49020   1044.01307  153.00000  16.76314             11.99180
295.18621   996.68966   145.00000  14.48405             13.19480
298.17373   925.95763   236.00000  22.72032             13.70218
299.82958   1184.63987  311.00000  21.91717             18.32130
301.47771   1144.44586  314.00000  22.75202             17.95530
302.60923   785.34154   325.00000  22.06905             19.03442
300.04380   367.04380   137.00000  14.27038             12.32065
301.43779   882.38710   217.00000  18.83845             14.83733
302.70000   1069.12632  190.00000  15.97371             15.19792
305.08230   259.33333   243.00000  20.82272             14.99140
310.64527   569.41216   296.00000  24.87014             15.37772
310.82909   214.95636   275.00000  24.08265             14.71996
315.18613   1245.21533  274.00000  25.92663             13.53352
312.71084   1503.11647  249.00000  20.63057             15.40893
310.90090   829.08108   111.00000  13.06865             10.97303
315.20556   390.39444   180.00000  18.04938             12.71696
319.95374   893.16370   281.00000  22.85747             16.05878
315.70000   1020.94667  150.00000  14.90373             12.82783
315.69375   1531.75000  160.00000  15.55302             13.14165
320.16364   449.86364   220.00000  21.98073             12.86198
314.22917   1101.95833  48.00000   8.14829              7.51026
318.39726   1272.52740  146.00000  14.43843             12.90248
321.00446   1038.97321  224.00000  20.20050             14.24278
322.18644   698.20904   177.00000  15.94381             14.21059
321.67521   936.79060   234.00000  20.89382             14.56724
323.00000   1004.78882  161.00000  16.85393             12.21959
320.83562   1812.08904  146.00000  16.79882             11.45243
325.10959   1015.17808  73.00000   11.01379             8.45761
335.08247   754.40206   291.00000  25.35443             14.85637
329.90278   739.02315   216.00000  19.70044             14.51536
332.97674   1291.87984  258.00000  21.52152             15.33992
332.23431   904.51883   239.00000  20.40507             15.17775
331.73188   1110.59420  138.00000  16.28294             10.92570
334.00000   146.38521   257.00000  23.48957             14.14593
337.50708   200.86119   353.00000  28.84758             15.72051
332.29897   992.11340   97.00000   11.66424             10.87703
335.51131   1123.80543  221.00000  18.29053             15.51056
336.62593   1223.74815  270.00000  21.54727             15.97272
339.31111   807.29259   270.00000  25.79126             13.64673
336.47297   852.78378   148.00000  15.07810             13.16422
340.22695   1057.16312  141.00000  14.93511             12.08148
342.79769   735.67052   173.00000  19.91854             11.08370
339.93671   1009.29114  158.00000  17.22322             11.86704
345.76000   1519.01000  200.00000  19.73179             12.97280
340.50000   725.50000   50.00000   8.25591              7.67333
346.85572   182.66667   201.00000  20.90637             12.37140
349.30144   958.75598   418.00000  29.00870             18.46431
349.13433   1346.26368  201.00000  18.63969             13.85557
350.78431   1753.05392  204.00000  20.41360             12.75347
354.47368   704.03047   361.00000  24.71655             18.89003
353.26846   403.54362   149.00000  15.60653             12.28756
356.92000   601.35111   225.00000  21.15100             13.70873
352.62097   1547.55645  124.00000  13.06374             12.18759
353.83060   856.69399   183.00000  20.63526             12.04134
359.40351   1185.19298  285.00000  26.08923             13.95923
357.49219   825.71094   128.00000  13.78176             11.87856
359.13472   1132.47150  193.00000  17.54422             14.01630
361.03646   205.19792   192.00000  16.37229             14.97387
355.54545   726.18182   33.00000   7.02959              6.03715
360.27586   1063.02299  174.00000  17.48203             12.75420
360.09938   1211.56522  161.00000  17.04225             12.05964
361.54348   1282.00000  184.00000  17.95716             13.07958
364.50220   813.73568   227.00000  24.34282             11.93156
366.35519   735.76503   366.00000  29.24722             16.25796
366.28313   1024.01506  332.00000  21.74049             19.51563
366.42512   849.44928   207.00000  17.86842             15.05703
367.33887   1096.43189  301.00000  23.66253             16.37741
366.19178   1309.47945  146.00000  15.22043             12.22241
365.27473   1894.24176  91.00000   12.05596             9.67296
369.47120   277.23037   191.00000  18.35138             13.68984
369.30814   936.34884   172.00000  16.93193             13.18144
370.25424   1155.55367  177.00000  16.97567             13.31540
372.59055   667.46063   254.00000  20.49985             15.81219
370.49138   802.85345   116.00000  14.71916             10.05338
368.23077   1037.03846  52.00000   9.33564              7.18765
372.92073   1346.43902  164.00000  19.17781             10.94790
376.54264   1218.17054  258.00000  21.80414             15.14452
374.99310   37.68276    145.00000  15.85536             11.72633
377.23776   1043.61538  143.00000  14.39691             12.67243
380.08929   1359.24107  224.00000  21.35607             13.43782
379.36111   424.18519   108.00000  13.11609             10.56898
381.59615   996.74231   260.00000  18.66848             17.75908
378.32955   1279.17045  88.00000   12.30870             9.17124
386.00000   577.73160   231.00000  26.46740             11.50060
381.25758   1496.62879  132.00000  13.62971             12.35563
382.75956   1016.07650  183.00000  17.12905             13.78852
385.12000   962.37000   200.00000  19.74363             12.97722
385.97706   748.99083   218.00000  17.18906             16.31158
381.82759   825.18966   58.00000   9.57946              7.72881
384.59060   918.62416   149.00000  14.83385             12.91720
390.31699   630.21569   306.00000  23.81893             16.61185
389.52574   778.63971   272.00000  23.62910             15.09738
390.60000   1188.55472  265.00000  21.66362             15.72992
389.57921   266.27723   202.00000  17.72076             14.63250
391.05263   133.87895   190.00000  16.23497             14.99963
389.15232   317.65563   151.00000  15.64640             12.62897
391.44404   809.59928   277.00000  22.69993             15.96024
392.59551   1663.57303  178.00000  16.32363             13.94064
392.58140   1277.73023  215.00000  18.62623             15.06753
392.41667   1160.44444  144.00000  14.93917             12.37356
395.92444   1318.21778  225.00000  20.79486             13.80770
394.55000   932.32143   140.00000  15.33783             11.66560
397.60769   1052.93846  260.00000  21.39964             15.65277
394.48447   156.88199   161.00000  15.09842             13.60708
395.72105   909.13158   190.00000  17.60213             13.84618
398.76768   236.08586   198.00000  17.78459             14.24957
399.09735   1485.73451  226.00000  20.52738             14.03417
397.87662   208.81818   154.00000  14.36170             13.69170
400.89189   1629.20270  148.00000  17.31281             10.90328
401.65680   762.05325   169.00000  17.10492             12.67998
403.23077   178.27885   208.00000  19.34807             13.84594
404.62577   1527.57669  163.00000  18.57765             11.27007
404.62030   507.03759   266.00000  21.22286             15.97405
410.17434   995.90132   304.00000  21.42511             18.52897
407.96512   219.66279   172.00000  16.38937             13.48439
410.53017   899.48276   232.00000  20.13115             14.94681
414.07018   1344.67105  228.00000  24.41812             11.99626
412.64674   400.51087   184.00000  17.03101             13.86388
417.39203   883.63787   301.00000  24.95545             15.51306
414.45098   914.29902   204.00000  17.66147             14.89886
414.50556   283.63889   180.00000  18.64555             12.39134
417.17316   1239.01732  231.00000  18.68944             15.98279
418.05650   1575.62712  177.00000  15.28127             14.75844
417.14783   556.18261   115.00000  14.42480             10.18857
422.62637   746.36996   273.00000  21.78355             16.16214
420.21583   927.69065   139.00000  17.33933             10.23075
421.65550   20.52153    209.00000  18.09377             14.95355
420.78710   1592.92903  155.00000  17.71817             11.20811
422.82320   299.95580   181.00000  17.18459             13.48555
424.11399   569.05699   193.00000  20.61013             12.14075
426.66667   1509.05128  234.00000  24.22143             12.64702
426.08140   381.51550   258.00000  19.11767             17.33621
429.91496   1022.23754  341.00000  22.27519             20.05899
430.70423   327.93310   284.00000  23.82536             15.47217
431.61938   518.98616   289.00000  19.90817             18.57375
431.20796   211.38496   226.00000  17.58976             16.66848
429.40541   417.39189   148.00000  15.11044             12.56738
434.23077   1252.09615  260.00000  20.01575             16.69732
437.01581   281.52174   253.00000  18.86681             17.21935
441.76207   850.53103   290.00000  27.64290             13.53198
435.86154   946.78462   130.00000  15.96710             10.73325
439.02985   955.94527   201.00000  21.34247             12.37550
438.20270   1083.82432  148.00000  15.13271             12.55092
438.80556   1179.58889  180.00000  16.62099             13.80459
441.13679   1196.52358  212.00000  22.23212             12.28245
450.15405   975.53243   370.00000  33.00021             16.86947
440.79348   1070.37500  184.00000  15.84813             14.88185
447.77419   714.93907   279.00000  27.13182             13.37279
442.77099   1627.98473  131.00000  15.70827             10.67399
446.37402   1540.21654  254.00000  20.18650             16.25308
447.13825   800.57143   217.00000  20.21521             14.26185
445.45000   1851.95000  100.00000  12.65770             10.30837
447.21717   151.37374   198.00000  18.96297             13.38785
453.29167   889.60417   240.00000  24.70270             12.70074
447.24545   1666.49091  110.00000  13.38446             10.59846
446.75000   486.43333   60.00000   9.53562              8.08296
452.34553   1053.33333  246.00000  20.13319             15.77920
449.77841   1277.13636  176.00000  16.53872             13.78492
453.65476   1177.21429  168.00000  16.93407             12.63122
459.10891   928.09406   202.00000  22.54708             11.56517
459.24427   873.60687   262.00000  21.21488             15.85229
459.31724   1230.90345  290.00000  21.37488             17.44361
459.41830   291.71895   153.00000  15.92905             12.39780
460.84071   810.53540   226.00000  19.03027             15.26891
462.44134   1396.80447  179.00000  20.45232             11.97609
462.80972   441.94332   247.00000  22.07246             14.49660
461.69685   614.68110   254.00000  19.29424             17.16814
468.01437   1137.50862  348.00000  32.57991             14.11506
462.58673   1365.07143  196.00000  21.34879             11.88150
464.99103   574.96413   223.00000  24.27951             11.80291
463.44253   740.27586   174.00000  17.25439             12.92256
466.66942   1253.54545  242.00000  23.27772             13.38073
465.77869   1102.54098  122.00000  12.97441             11.99871
466.36723   1272.97175  177.00000  15.51724             14.84018
468.17062   1198.15640  211.00000  17.37293             15.51752
467.31579   107.62105   95.00000   12.27392             10.05588
472.25561   1563.39910  223.00000  21.09286             13.54480
472.28780   301.78049   205.00000  18.35896             14.27444
470.88571   1113.26429  140.00000  15.42736             11.68570
472.54483   596.20000   145.00000  15.11066             12.25882
473.52616   851.28779   344.00000  32.59765             13.71169
476.82305   1001.60494  243.00000  22.27041             13.93436
486.10164   1055.36066  305.00000  34.79676             11.43140
478.75909   243.52727   220.00000  18.95066             14.90104
482.81250   1212.13672  256.00000  24.35666             13.52606
482.17054   481.10465   258.00000  21.77220             15.19478
478.73494   939.30924   249.00000  23.36496             14.07220
477.98361   1598.88525  122.00000  14.21224             10.93770
485.59701   367.13806   268.00000  19.95963             17.53698
486.24681   1517.57447  235.00000  27.63055             11.59310
486.24757   1490.28641  206.00000  21.55668             12.21040
494.92982   701.02105   285.00000  32.53334             11.36173
491.06736   1602.50777  193.00000  19.61902             12.64726
490.47368   1350.16746  209.00000  18.29287             14.57310
493.51613   461.99539   217.00000  23.06692             12.17633
491.57576   895.25253   297.00000  27.84796             14.53054
493.78191   1584.73404  188.00000  18.50728             13.09266
495.55474   1261.08759  137.00000  16.62561             10.52225
497.97881   1284.22458  236.00000  20.86998             14.59403
495.92814   879.11976   167.00000  17.45609             12.17155
498.57836   1034.42537  268.00000  21.50149             16.19489
496.89024   737.26220   164.00000  15.16889             13.78325
501.93119   632.02294   218.00000  19.02241             14.69099
500.87446   1102.52814  231.00000  20.27521             14.61518
506.06960   617.83883   273.00000  27.84896             12.69885
502.84375   1363.55208  192.00000  17.65460             13.95401
502.98256   94.34302    172.00000  16.58053             13.35171
503.58607   207.09426   244.00000  19.86912             15.73885
510.78309   582.27941   272.00000  26.21066             13.47326
508.37500   808.37917   240.00000  20.38011             15.18444
507.64435   830.43096   239.00000  20.90736             14.82266
508.22709   1527.14741  251.00000  22.55716             14.32554
509.62755   67.34694    196.00000  17.02851             14.77473
508.27869   1092.80874  183.00000  20.96900             11.58116
513.10526   1341.99123  228.00000  21.84077             13.60582
506.27692   1668.18462  65.00000   9.40595              8.83884
508.93651   12.36508    126.00000  14.49574             11.14381
513.97661   902.88889   171.00000  21.22369             10.52834
509.03185   1647.54777  157.00000  15.70242             12.83429
514.75117   993.94366   213.00000  20.01148             13.61584
515.70915   1399.33987  306.00000  26.72046             14.69311
515.56618   290.83456   272.00000  21.82647             16.15668
518.09353   726.28058   278.00000  23.15964             15.39928
517.49796   1555.08163  245.00000  19.62095             16.16362
516.29600   860.74400   125.00000  13.00787             12.69933
519.44649   1122.30258  271.00000  25.63177             13.55581
519.57143   870.21905   105.00000  12.85155             10.48753
523.82917   259.39167   240.00000  21.19403             14.56795
519.50000   850.66667   42.00000   8.19176              6.52272
526.29694   1094.69869  229.00000  18.07178             16.29790
527.76877   1024.70571  333.00000  22.90659             18.56833
527.90816   108.80612   196.00000  17.49878             14.35395
529.19697   511.88258   264.00000  21.14124             16.31956
528.21910   1374.58989  178.00000  18.54105             12.22659
530.35274   1449.84247  292.00000  21.43111             17.90895
536.67434   964.64145   304.00000  28.55215             14.03266
533.26282   486.67308   156.00000  18.18123             11.38429
535.30973   1628.34956  226.00000  21.62208             13.34117
534.59641   859.69058   223.00000  17.91657             15.88601
537.07442   1532.17209  215.00000  21.77350             12.66357
539.08000   876.35111   225.00000  19.74375             14.62063
537.62816   1145.59206  277.00000  22.11061             16.07902
532.50000   622.50000   32.00000   6.32456              6.32456
536.05369   729.55034   149.00000  14.92340             12.77782
538.25463   1497.12963  216.00000  19.74667             14.23427
540.52206   932.90441   272.00000  21.13719             16.46763
541.14216   1604.17647  204.00000  17.23725             15.21147
544.90909   595.66116   242.00000  21.56598             14.89069
542.55932   1194.77119  236.00000  20.58277             14.95976
541.73451   1247.33628  113.00000  16.96536             9.28223
543.66939   1335.18367  245.00000  19.87482             15.95174
544.81328   1068.88797  241.00000  21.46187             14.74004
544.20755   1841.33962  106.00000  15.13652             9.43159
549.13910   228.57519   266.00000  22.46602             15.28052
546.09559   985.82353   136.00000  13.97314             12.63007
547.28856   1166.81095  201.00000  19.51178             13.23771
548.49345   485.05240   229.00000  20.56582             14.64835
547.87755   1229.17687  147.00000  16.93501             11.13074
547.76887   1646.99528  212.00000  17.17053             15.75810
554.08780   707.27805   205.00000  24.43580             10.79519
551.65025   1375.50739  203.00000  17.33406             15.05249
551.40805   885.79310   174.00000  17.36351             12.87915
550.94702   81.43709    151.00000  14.06126             13.71326
547.91892   625.45946   37.00000   7.30822              6.39037
553.69725   1040.66055  218.00000  19.47482             14.29791
554.06818   926.92727   220.00000  19.42955             14.59785
550.98710   1020.67742  155.00000  17.70374             11.32997
554.86111   1178.45833  216.00000  17.73788             15.68184
553.71357   1578.36683  199.00000  17.10429             14.96185
550.43284   1678.20896  67.00000   11.28377             7.73216
558.26286   72.19429    175.00000  20.66914             11.20268
559.21649   322.58763   291.00000  25.96725             14.41664
558.74074   1126.67340  297.00000  22.32023             17.18297
561.91166   613.10601   283.00000  27.34063             13.40856
560.87719   534.81579   228.00000  21.52126             13.58723
562.90541   1513.94595  222.00000  19.35465             14.71104
566.25000   1018.32308  260.00000  22.82297             14.54370
566.45896   379.77985   268.00000  21.30337             16.27533
565.31818   849.34545   220.00000  18.47898             15.34150
565.88031   880.80695   259.00000  23.01453             15.15863
565.98450   990.79845   129.00000  13.64685             12.08341
571.25436   281.80836   287.00000  21.53529             17.19580
569.10303   715.60606   165.00000  16.33988             12.91197
573.05224   659.75000   268.00000  23.34860             15.42655
572.73577   1037.51220  246.00000  21.22943             14.84872
574.24710   934.56371   259.00000  20.31786             16.33894
572.84058   1189.17874  207.00000  18.87568             13.97474
572.96833   1590.01357  221.00000  19.83920             14.31696
574.79372   488.70404   223.00000  17.06670             16.98613
574.35542   535.25301   166.00000  18.67213             11.39087
573.75641   894.98718   78.00000   12.03124             8.27352
577.51515   1142.67172  198.00000  19.29543             13.29612
576.51659   1157.81991  211.00000  17.46832             15.43010
582.05769   670.55288   208.00000  18.12423             14.79705
581.64394   1209.48864  264.00000  21.17353             16.01371
582.78488   915.65698   172.00000  17.59274             12.50350
586.19277   826.98394   249.00000  22.46498             14.37239
590.08532   385.18771   293.00000  24.71936             15.14751
588.42066   1117.96679  271.00000  22.20577             15.71128
590.36859   339.90064   312.00000  21.30127             19.30660
587.81532   1514.70721  222.00000  17.96823             15.85918
591.64348   496.96957   230.00000  18.98497             15.59126
590.64516   1062.79032  248.00000  20.94568             15.23935
594.01045   1077.32404  287.00000  27.69244             13.40254
590.65104   1635.57292  192.00000  22.27065             11.10112
589.30667   931.70667   150.00000  15.19099             12.68091
592.80090   1189.59276  221.00000  19.44484             14.85021
593.69959   129.28395   243.00000  20.90320             14.98068
586.68750   897.40625   32.00000   6.53860              6.44544
594.41833   1301.33466  251.00000  22.82620             14.48003
593.25668   1839.43316  187.00000  18.01207             13.30760
589.80645   892.09677   31.00000   7.28995              5.40409
593.10690   1042.20690  290.00000  29.43158             12.69933
601.07436   587.08023   511.00000  35.25422             18.67723
601.39118   1097.03030  363.00000  30.04803             16.05904
598.22759   716.73103   145.00000  15.11881             12.24355
601.31818   696.21212   198.00000  20.72523             12.27480
600.13386   1492.32283  127.00000  17.88173             9.17665
603.51429   264.16071   280.00000  24.98694             14.35397
604.35683   1685.76211  227.00000  18.91943             15.35003
607.80335   302.89958   239.00000  21.25310             14.41097
608.65596   1014.85321  218.00000  20.51007             13.59159
606.60741   1475.13333  135.00000  16.70674             10.35522
611.78392   806.29648   199.00000  17.30374             14.94832
612.21905   1512.83333  210.00000  17.97927             14.91661
614.23755   684.54023   261.00000  21.64391             15.79634
612.50000   993.83613   238.00000  18.95578             16.08632
611.46111   1629.80556  180.00000  16.77056             13.82056
612.10326   138.07065   184.00000  18.85373             12.53619
615.31532   561.38288   222.00000  18.07947             15.74824
615.37884   930.26280   293.00000  20.21140             18.52594
613.01087   1829.65761  184.00000  16.68181             14.05937
614.29839   1129.56855  248.00000  19.97486             15.89548
615.21693   44.16931    189.00000  17.35884             13.99995
621.22689   896.26050   238.00000  22.35355             13.68269
621.48082   1284.80818  391.00000  25.90743             19.65211
616.35965   1615.97368  114.00000  13.32198             10.92665
625.30962   709.27615   239.00000  21.02777             14.70034
626.72619   1079.77778  252.00000  20.74498             15.75121
630.31429   1588.40816  245.00000  25.77834             13.09177
626.42268   1965.09278  97.00000   11.88886             10.96522
630.37019   1027.00962  208.00000  17.33836             15.40837
631.35593   1136.51695  236.00000  25.62162             12.36216
629.92473   72.99462    186.00000  17.50038             13.64883
627.81651   727.12844   109.00000  15.46042             9.11638
634.24460   1110.43525  278.00000  24.11327             15.35201
635.24710   551.21236   259.00000  21.08638             15.96128
634.51456   1377.23301  206.00000  20.95422             12.68934
638.01653   142.68182   242.00000  20.30231             15.59435
637.50781   1094.28516  256.00000  19.97533             16.41255
634.25000   1828.72500  120.00000  15.13192             10.34802
642.83000   1514.35667  300.00000  30.18700             12.84810
636.74834   1599.34437  151.00000  18.85344             10.26252
638.09292   22.06637    226.00000  21.47585             13.42151
636.68595   1438.25620  121.00000  15.06757             10.46487
641.51761   510.69718   284.00000  21.97777             16.91274
639.22286   678.07429   175.00000  15.30247             14.58659
641.02083   1460.21354  192.00000  19.18707             12.79466
641.08021   1903.22995  187.00000  16.55407             14.51416
640.72340   1266.36702  188.00000  16.46287             14.57697
637.04762   1276.42857  21.00000   5.88238              4.83476
642.77717   406.29891   184.00000  18.03713             13.09841
642.22222   771.34259   108.00000  12.84111             10.73558
645.25000   995.05319   188.00000  18.70392             12.84321
645.50732   62.99512    205.00000  19.12941             13.75947
644.73892   354.06897   203.00000  17.40780             14.88077
641.42424   803.42424   33.00000   6.68318              6.22799
656.39365   528.28889   315.00000  29.63551             14.41531
651.18182   926.37190   242.00000  22.21970             13.92563
650.12261   1036.22989  261.00000  21.65364             15.82990
649.66129   1068.30323  310.00000  24.20770             16.72384
650.26740   336.30037   273.00000  23.03517             15.49224
653.25882   572.03137   255.00000  22.78116             14.49685
650.51630   808.08696   184.00000  18.44307             13.66326
650.59441   1127.06294  143.00000  17.15484             10.95550
647.09375   1182.93750  32.00000   7.52755              5.35097
653.45833   184.91667   240.00000  19.37424             15.89445
653.27753   758.37885   227.00000  18.98246             15.52307
657.85211   411.09507   284.00000  21.91713             16.75309
654.69507   1237.94619  223.00000  20.47336             13.94054
649.31034   580.89655   29.00000   6.40132              5.78349
650.62162   792.29730   37.00000   8.29994              5.62337
656.64737   1358.84211  190.00000  20.25251             12.58215
658.48571   872.15510   245.00000  19.95845             15.84359
656.43796   1168.42336  137.00000  16.31137             10.72562
661.91386   1294.92509  267.00000  20.83777             16.97691
665.11307   1101.73145  283.00000  28.07372             13.20853
660.87815   87.90756    238.00000  20.65291             14.83265
666.41870   311.58943   246.00000  21.42956             14.73629
664.33673   1217.54082  196.00000  18.99959             13.23073
663.48085   1585.02128  235.00000  20.57955             14.73080
665.04661   46.72881    236.00000  19.40501             15.51152
665.44402   164.58687   259.00000  21.99752             15.04433
671.44330   1398.56701  388.00000  24.09758             21.60297
667.60674   382.35581   267.00000  21.09602             16.17557
662.15217   960.41304   46.00000   8.13072              7.34314
666.82941   12.18235    170.00000  15.39679             14.31947
668.27189   894.25806   217.00000  18.40829             15.11040
669.85268   932.51786   224.00000  21.00167             13.80757
671.73930   1126.19455  257.00000  21.27940             15.67868
668.47778   813.65556   180.00000  18.52320             12.48494
670.38220   1457.26702  191.00000  21.58921             11.41868
669.85135   1088.21622  222.00000  18.15335             15.66149
671.59286   1171.49286  140.00000  15.87204             11.34635
672.24309   1184.81768  181.00000  16.78386             14.00735
674.23028   349.35331   317.00000  24.65794             16.62554
672.54630   435.01852   108.00000  13.61525             10.22307
675.38129   411.03597   139.00000  15.13419             11.72243
678.80513   789.27179   195.00000  20.16040             12.50454
679.36842   591.60526   266.00000  22.52826             15.16602
677.62329   1337.10274  146.00000  16.72475             11.31041
674.40000   941.48571   35.00000   7.21652              6.16800
674.29167   756.04167   24.00000   6.82805              4.47089
679.83152   991.10326   184.00000  17.85087             13.35241
681.01031   1066.75258  194.00000  18.67692             13.34884
683.45415   1497.08734  229.00000  25.20379             11.70609
683.88235   1155.43316  187.00000  19.47798             12.45548
683.86700   1002.83251  203.00000  18.95291             13.86835
687.45312   317.93750   256.00000  24.61477             13.30471
683.50000   448.02410   166.00000  15.10601             14.01519
684.00000   774.90083   242.00000  18.67410             16.61862
683.37363   421.28571   91.00000   13.06619             9.07956
684.28378   1259.81757  148.00000  15.37068             12.31466
690.93023   1720.93023  258.00000  18.88534             18.20880
688.78307   69.64021    189.00000  16.27710             14.77303
693.49823   194.03887   283.00000  26.29791             13.74785
689.44886   436.60795   176.00000  18.47718             12.21779
691.81132   825.26415   212.00000  20.22795             13.36896
691.70186   661.50311   161.00000  16.88875             12.19229
691.87500   797.03125   96.00000   12.65647             9.76634
695.36429   109.92857   140.00000  15.25745             11.74392
698.63819   1242.68844  199.00000  22.96147             11.23248
700.39943   219.50862   348.00000  27.04405             17.25126
693.65385   459.88462   26.00000   6.78928              4.81250
700.26570   428.36715   207.00000  18.05944             14.63502
700.72646   940.36771   223.00000  20.13619             14.18639
698.43158   1052.19474  190.00000  17.75916             14.02907
701.50562   150.80899   178.00000  17.65284             12.84374
699.34978   1362.65471  223.00000  25.25423             11.33945
703.42667   448.32000   225.00000  17.08780             16.78910
703.09259   44.04630    108.00000  14.19924             9.74427
704.72059   797.17647   136.00000  13.94739             12.54472
709.52941   624.29044   272.00000  20.72522             16.86927
710.54299   538.83710   221.00000  20.71980             13.70704
708.34132   274.39521   167.00000  16.14989             13.24540
709.03243   65.32432    185.00000  16.42573             14.46332
707.31579   467.55263   38.00000   7.81696              6.17231
706.92857   927.35714   28.00000   6.56455              5.49662
711.54140   1598.94268  157.00000  15.58902             13.00996
714.48603   853.07821   179.00000  18.52391             12.49553
714.26087   120.18841   207.00000  19.41627             13.60375
719.69264   878.70996   231.00000  25.04234             12.01073
716.56561   806.39367   221.00000  19.86528             14.28408
717.59504   417.76033   121.00000  16.86047             9.15160
718.11875   450.78125   160.00000  15.77834             12.95580
722.30325   908.30686   277.00000  21.13895             18.30549
721.44492   1066.28814  236.00000  23.73582             13.74513
719.41781   263.87671   146.00000  15.02811             12.52053
715.60000   430.30000   20.00000   6.48482              3.84020
725.75197   964.07874   254.00000  22.01354             14.97260
725.64286   84.13333    210.00000  20.24017             13.23094
724.62188   1006.11250  320.00000  22.61182             18.31299
724.16744   1805.21860  215.00000  17.31318             15.92742
721.05556   776.66667   18.00000   5.26797              4.96423
731.47186   1169.25541  231.00000  25.66889             11.76610
725.71975   1339.08917  157.00000  16.71160             12.07201
725.76316   797.63158   76.00000   12.39551             7.91521
728.57764   45.13043    161.00000  16.33117             12.60897
730.74812   434.93609   266.00000  19.87232             17.13752
732.83392   340.86926   283.00000  22.45837             16.77313
733.63485   1238.88382  241.00000  22.36370             14.83594
735.31535   1320.31535  241.00000  21.07833             15.01060
737.24402   1772.40670  209.00000  17.01496             15.68902
741.56459   1496.14354  209.00000  21.58617             12.43066
745.28963   550.87195   328.00000  23.65919             18.29712
739.24242   206.47475   99.00000   11.67703             10.90035
743.29515   137.55507   227.00000  19.98552             14.58622
738.66667   654.78431   51.00000   9.13280              7.13121
741.78182   46.80606    165.00000  15.76365             13.56416
745.90909   1608.68485  165.00000  15.21904             13.94248
746.77576   752.14545   165.00000  16.19438             13.12570
750.27687   199.55700   307.00000  29.17187             13.91777
751.11570   670.70248   242.00000  23.59975             13.18526
750.19697   1151.53030  198.00000  21.54349             11.71765
748.16000   26.17333    150.00000  15.50117             12.35463
748.54753   382.74144   263.00000  22.94957             14.72531
753.92135   880.47566   267.00000  25.74857             13.95190
754.15909   1447.86742  264.00000  28.56851             11.97735
756.25845   109.71256   414.00000  37.69038             15.50818
750.22917   1716.93056  144.00000  19.35815             9.68448
752.39674   1483.98370  184.00000  16.54887             14.22655
751.38547   1844.47486  179.00000  17.71036             12.88714
751.75723   340.79191   173.00000  17.96148             12.39817
751.53600   762.82400   125.00000  13.47947             11.93966
754.34483   1886.99310  145.00000  14.84892             12.49797
755.11348   61.87943    141.00000  15.48095             11.81000
758.09158   402.65568   273.00000  20.42963             17.08239
755.52985   660.61194   134.00000  15.59800             11.09839
755.37069   1329.54310  116.00000  15.85079             9.45625
758.46667   260.72821   195.00000  16.05459             15.60487
762.50926   815.44444   216.00000  24.05157             12.89233
761.04795   74.91096    146.00000  15.65534             11.99116
757.92857   1051.92857  28.00000   6.95508              5.07438
766.23556   1749.95111  225.00000  25.43448             11.33810
763.00000   743.89381   113.00000  13.93602             10.54345
770.89015   1035.13258  264.00000  27.12756             13.07728
765.45968   1316.70161  124.00000  17.65214             9.77075
763.26111   342.59444   180.00000  18.85010             12.26631
762.83607   770.01639   61.00000   10.30022             7.54195
769.69106   823.77236   123.00000  15.35302             10.52647
772.16402   1836.42328  189.00000  16.92380             14.27997
772.97683   274.45560   259.00000  19.37891             17.19300
773.29583   315.63333   240.00000  20.21960             15.52041
774.57346   1278.60664  211.00000  18.76973             14.45626
772.87611   1896.91150  113.00000  14.46103             10.37670
774.99539   1261.64977  217.00000  23.60833             12.61781
777.37736   219.48302   265.00000  21.67167             15.75218
779.16667   1818.94271  192.00000  19.13227             13.26811
776.04242   1915.80000  165.00000  17.79679             11.95900
777.52361   774.31760   233.00000  18.11338             16.50854
775.62879   1302.18182  132.00000  15.58958             10.91792
779.90909   388.18615   231.00000  20.58973             14.42820
779.41611   608.38255   149.00000  17.77408             11.17721
773.44000   734.80000   25.00000   6.84831              4.72473
776.68269   599.40385   104.00000  12.33250             11.14229
779.04965   65.87234    141.00000  16.35105             11.04098
780.80124   756.99379   161.00000  16.52628             13.20412
785.66390   926.25726   241.00000  20.26853             15.45535
785.61940   635.60075   268.00000  20.60581             16.93432
788.55973   795.47099   293.00000  23.09282             16.27670
785.75127   31.23350    197.00000  20.62157             12.27830
785.83516   118.71429   182.00000  19.43043             12.08636
787.50000   186.22222   162.00000  17.47363             11.89692
788.55882   832.91176   170.00000  16.94971             12.81582
791.22088   887.53012   249.00000  24.99870             12.78886
787.02260   1141.27684  177.00000  17.51454             12.88917
788.02463   1157.20690  203.00000  19.78330             13.72659
784.91398   1222.22581  93.00000   14.45299             8.33082
786.94366   848.43662   71.00000   12.39526             7.28419
789.30435   1234.01242  161.00000  16.43578             12.75796
794.74793   1299.71488  242.00000  23.95374             13.23282
790.25243   1609.04854  103.00000  13.47231             9.98459
796.51292   268.72694   271.00000  23.36698             14.92189
797.04651   436.24252   301.00000  24.00007             16.61697
792.96175   1641.47541  183.00000  16.87799             13.95765
796.83051   1464.62712  236.00000  26.48915             11.80261
791.61538   1900.26923  78.00000   10.32041             9.63506
797.65091   155.84727   275.00000  22.20660             16.20658
791.14634   1006.95122  41.00000   8.22817              6.29474
796.01105   1167.07182  181.00000  16.79245             13.81831
797.48889   1488.89259  270.00000  21.30321             16.44750
799.05325   29.04142    169.00000  18.79701             11.51775
797.90411   295.43836   219.00000  18.92483             14.78180
797.92073   308.35366   164.00000  18.11555             12.07167
798.33992   395.87747   253.00000  19.49507             16.62857
793.76364   812.83636   55.00000   9.09879              7.72003
800.58007   1019.88612  281.00000  21.84438             18.85307
796.38000   1222.57000  100.00000  13.14627             10.00733
793.25000   773.75000   28.00000   6.54654              5.42481
797.85308   1598.46919  211.00000  21.59011             12.86861
800.21196   174.40217   184.00000  17.99365             13.15989
802.09385   689.79935   309.00000  22.07130             18.39925
800.42857   1710.89048  210.00000  18.88332             14.44279
799.74874   60.15578    199.00000  17.72307             14.41078
799.38542   224.65104   192.00000  17.90015             13.75414
800.43662   717.81221   213.00000  19.07133             14.38026
796.61194   1122.73134  67.00000   11.28141             7.57262
801.55914   1671.04301  186.00000  17.52645             13.58235
801.20765   1916.77049  183.00000  18.84133             12.43372
800.79012   752.43210   81.00000   12.59515             8.19762
803.43318   1188.98157  217.00000  23.13435             12.71475
803.31469   127.03497   143.00000  15.54700             11.82335
802.63905   199.27219   169.00000  17.45486             12.67289
805.58898   838.18220   236.00000  25.23381             12.51523
804.17514   1229.83616  177.00000  17.03207             13.48172
802.35135   251.54054   37.00000   7.73643              6.14115
809.79337   530.33163   392.00000  25.85408             19.63185
807.71250   601.63750   240.00000  20.44084             15.24294
807.83214   934.86071   280.00000  20.47029             17.48404
805.89062   1125.43750  128.00000  14.10594             11.66270
805.80000   1586.05882  85.00000   11.26669             9.62298
810.01818   1257.82273  220.00000  22.80119             12.75637
807.09615   1810.85577  104.00000  14.02583             9.66493
810.59200   318.72400   250.00000  20.63059             15.46714
810.00980   1887.14706  102.00000  12.99930             10.00804
813.26977   1152.37209  215.00000  18.68302             15.01170
815.00000   1308.51765  170.00000  18.58486             11.84449
813.78866   1341.96907  194.00000  17.30982             14.28758
811.84375   782.37500   32.00000   6.91016              5.84030
824.99686   1460.00000  318.00000  36.79984             11.24614
816.22222   1563.90643  171.00000  16.80925             13.05067
818.01130   1663.52542  177.00000  16.94640             13.36893
819.52000   270.08444   225.00000  19.28461             14.94229
822.30093   1360.63889  216.00000  22.66353             12.31437
825.82463   723.03358   268.00000  24.74178             14.06137
824.90909   657.10140   286.00000  26.20712             14.03475
822.29958   1534.91561  237.00000  22.65617             13.42271
821.67081   1856.24224  161.00000  17.03782             12.07879
826.66667   204.16895   219.00000  17.76497             15.93072
826.23116   1616.76382  199.00000  19.25650             13.19443
825.15333   67.17333    150.00000  15.06395             12.68097
825.77041   1065.77551  196.00000  19.76754             12.89212
827.20000   1250.84706  255.00000  23.95653             13.84069
827.29365   1296.15873  126.00000  14.99715             10.72460
831.00000   1641.85240  271.00000  22.54797             15.97209
834.04329   907.85281   231.00000  22.10624             13.77408
837.67857   137.26984   252.00000  27.81353             12.57999
835.51090   418.47040   321.00000  22.62364             18.33657
836.63736   255.99634   273.00000  22.53889             15.70482
833.55789   1309.46316  95.00000   13.27488             9.38291
835.60335   1148.65363  179.00000  17.00549             13.55012
834.98095   1318.00000  105.00000  15.33725             9.07331
833.83740   1329.12195  123.00000  13.22746             11.90133
837.44162   787.64975   197.00000  19.45838             13.16987
838.67089   1213.27848  237.00000  21.66570             14.33282
840.67702   78.81988    161.00000  18.95749             11.10383
839.72539   1061.70984  193.00000  16.98623             14.77648
842.36653   1091.97211  251.00000  22.66930             14.15975
835.36667   1852.75000  60.00000   9.06474              8.43876
839.92308   854.72308   130.00000  14.50924             11.57612
843.82673   114.16832   202.00000  16.69248             15.47504
842.35461   193.48936   141.00000  15.15933             11.88286
844.87050   1499.46763  139.00000  16.18434             11.00808
846.20588   1273.06471  170.00000  17.24804             12.97672
844.56279   1574.15814  215.00000  18.68976             14.90113
845.65116   1778.53488  172.00000  19.73249             11.22340
846.10180   180.04192   167.00000  16.21661             13.48901
844.83598   340.88889   189.00000  18.85241             12.86893
848.53307   840.27237   257.00000  21.64424             15.55021
848.91489   1000.84043  188.00000  21.45213             11.53191
847.43537   1156.93197  147.00000  16.17331             11.86880
852.91724   1147.91724  145.00000  17.73930             11.74535
853.72340   923.65957   282.00000  24.56519             15.16615
852.57364   1025.10078  258.00000  28.56238             12.43538
854.50769   70.07692    195.00000  19.52596             12.82927
852.36628   710.88953   172.00000  17.17753             12.86369
857.61905   1409.62271  273.00000  23.67918             14.91862
857.84351   962.98092   262.00000  26.51198             13.21055
861.72426   1752.94853  272.00000  23.70131             14.70456
861.06111   121.29444   180.00000  18.84978             12.23633
859.73370   1033.22826  184.00000  20.73645             11.41074
863.38362   1629.81897  232.00000  20.24565             14.69671
864.10000   203.16190   210.00000  21.43553             12.83060
870.02727   785.01515   330.00000  33.17155             13.32290
864.69588   903.74742   194.00000  17.63966             14.51027
861.93923   995.30939   181.00000  18.53374             13.47859
862.01205   1527.26908  249.00000  20.12222             15.92073
860.28358   1719.46766  201.00000  21.13588             12.15125
861.34932   1785.20548  146.00000  15.68174             11.92225
862.83913   368.99130   230.00000  25.62333             11.53611
862.91597   1574.34034  238.00000  20.51541             15.12998
863.58470   51.48087    183.00000  18.57193             12.61844
861.97561   1488.47967  123.00000  17.50968             9.01470
864.84713   1878.33121  157.00000  14.94964             13.47646
867.01064   1347.35638  188.00000  23.62771             10.36954
868.82927   161.83537   164.00000  15.50220             13.52328
868.07383   253.11409   149.00000  14.25630             13.31319
873.43369   303.61290   279.00000  22.84559             15.84463
871.91667   930.43056   288.00000  21.07598             17.58008
872.00000   1051.54615  260.00000  19.61555             18.26293
869.12687   388.24627   134.00000  14.47384             11.80549
870.14428   1465.51741  201.00000  18.06209             14.19305
871.43684   1257.12632  190.00000  17.40339             14.11840
871.01026   1443.04103  195.00000  18.37211             13.54483
874.92258   1507.98710  155.00000  19.02805             10.56604
873.98039   404.09314   204.00000  16.99846             15.29596
874.13333   1155.08148  135.00000  16.14088             10.77445
876.36667   1219.21667  300.00000  24.66408             16.40917
875.28085   892.07660   235.00000  22.08997             13.91788
872.85859   1936.84848  99.00000   12.96166             10.01993
876.23134   1142.71642  134.00000  16.03893             10.84274
880.45361   1497.36598  194.00000  25.93818             10.37654
880.19635   465.41553   219.00000  19.66888             14.42608
882.80085   710.74576   236.00000  19.22711             15.75142
879.43779   1176.44700  217.00000  22.35141             12.52440
879.27007   1678.36496  137.00000  15.43994             11.49563
882.35122   97.58537    205.00000  18.41875             14.18436
882.86207   1096.91571  261.00000  23.49648             14.97338
880.81944   140.06250   144.00000  16.51976             11.24287
881.32955   956.32576   264.00000  26.61331             12.89089
885.76230   356.44262   244.00000  23.42717             13.56157
885.32278   378.94304   158.00000  18.18850             11.12490
884.33197   1552.70902  244.00000  19.95503             15.68095
883.96063   1901.17323  127.00000  14.99527             10.94110
885.82857   329.86667   210.00000  16.94886             15.93740
885.84831   1370.28090  178.00000  18.92432             12.06226
885.70748   295.89116   147.00000  15.19338             12.44022
884.38462   1746.22436  156.00000  17.20793             11.73629
890.54737   258.80351   285.00000  27.58545             13.66273
887.96341   421.08943   246.00000  19.20910             16.34086
887.70710   878.14201   338.00000  36.68998             12.42571
892.49510   634.61765   408.00000  26.39605             19.77440
891.89700   989.79399   233.00000  19.80954             15.33613
888.88679   145.32075   53.00000   9.22641              7.34870
895.34459   1312.63851  296.00000  19.99320             19.07624
892.78977   1465.56250  176.00000  20.22239             11.27402
894.88722   450.62782   266.00000  20.86216             16.36625
898.91416   1051.93133  233.00000  24.72134             12.46148
892.27559   1638.06299  127.00000  14.01081             11.63593
893.84483   693.23563   174.00000  17.22304             13.00845
893.61000   777.76500   200.00000  19.99584             12.96647
892.92899   1291.47929  169.00000  18.95339             11.45074
895.27326   492.94767   172.00000  18.27490             12.03286
896.40724   801.23077   221.00000  21.68628             13.18887
894.69825   1231.30526  285.00000  30.74464             12.63474
898.39181   211.15205   171.00000  15.32098             14.29543
894.10000   311.80000   70.00000   12.40587             7.18988
897.25556   762.73889   180.00000  17.38208             13.23945
900.56610   1165.58644  295.00000  21.68582             17.95106
898.36066   1266.26776  183.00000  17.61120             13.40968
896.64567   1851.18898  127.00000  13.27828             12.33158
897.06569   1922.46715  137.00000  15.55248             11.32102
898.90741   195.85185   162.00000  15.78921             13.06357
901.32948   1406.07514  173.00000  18.99428             11.76761
902.50862   1693.33621  232.00000  25.29318             11.89453
902.52683   340.12683   205.00000  17.66613             14.89638
900.23333   1829.63333  150.00000  16.91503             11.31988
905.92432   358.54595   185.00000  18.44025             13.63955
902.61739   1878.40870  115.00000  15.11011             9.84004
905.39881   370.77976   168.00000  15.32490             14.43270
912.40609   530.79695   197.00000  18.24469             13.91765
912.60870   831.35326   184.00000  23.54224             10.19010
911.61745   165.46980   149.00000  14.14136             13.44744
912.64260   567.19134   277.00000  25.10388             14.38020
914.82258   1512.59274  248.00000  20.30346             16.04930
912.80841   1545.41589  214.00000  18.28581             15.01879
913.10112   1641.26217  267.00000  24.23086             14.08824
915.25714   1322.37143  140.00000  17.82148             10.09884
916.43624   1771.87248  149.00000  17.15133             11.33163
918.34932   38.56849    146.00000  15.04980             12.51944
920.36574   635.73611   216.00000  17.77768             15.65235
921.29185   984.97854   233.00000  19.38933             15.92759
923.83984   1150.56250  256.00000  22.08168             15.51577
920.80402   547.52764   199.00000  17.19230             14.93635
920.20588   1694.68137  204.00000  17.33182             15.10653
923.60729   654.06478   247.00000  20.69856             16.21710
919.67778   1160.56667  90.00000   10.89131             10.53683
924.59233   279.97909   287.00000  20.73228             17.89967
931.08547   1063.05983  234.00000  27.75746             10.91139
928.96257   1531.05882  187.00000  27.51906             9.15775
926.65563   1022.88079  151.00000  14.31706             13.59183
932.99598   1171.75502  249.00000  25.58453             12.80646
927.88701   1420.48588  177.00000  18.13310             12.44197
924.77251   1730.47393  211.00000  24.05278             11.26077
927.98246   111.06140   228.00000  19.76052             14.83182
930.46842   558.25263   190.00000  20.57733             12.30146
928.48684   161.48684   152.00000  14.34798             13.51114
931.48485   382.31818   264.00000  22.98835             14.77827
932.62687   57.23134    134.00000  16.10498             10.64456
933.07834   970.49309   217.00000  19.67156             14.65203
934.62121   1492.04545  330.00000  23.59009             18.79048
929.76471   149.82353   34.00000   7.16124              6.06171
934.65106   1094.15745  235.00000  21.76376             13.79155
933.35795   1119.70455  176.00000  21.69660             10.57836
932.35849   1927.55660  106.00000  12.04731             11.30704
935.61350   545.01840   163.00000  17.48989             11.97657
936.24171   1044.02370  211.00000  17.20716             15.81628
934.00575   1606.18966  174.00000  17.63235             12.73858
936.55975   1647.65409  159.00000  15.42200             13.19288
936.15702   1075.76033  121.00000  14.06526             10.99340
937.24479   1797.30729  192.00000  17.94344             13.68929
937.65833   846.43750   240.00000  20.86783             15.12845
937.48617   1570.83004  253.00000  22.52438             14.61269
939.77992   235.90347   259.00000  19.48075             16.98128
942.20812   1624.56853  197.00000  16.23737             15.46984
942.53889   1591.98889  180.00000  18.67245             12.59375
947.84597   415.12714   409.00000  29.43078             18.36036
947.88032   980.82447   376.00000  32.69879             15.31731
946.40541   596.65541   148.00000  15.10516             12.85498
950.68000   585.73333   150.00000  15.03690             12.89219
951.30345   1041.94483  145.00000  16.55730             11.17522
951.29050   1726.10615  179.00000  17.28626             13.29304
953.49383   1693.04321  162.00000  16.07580             12.81425
955.17416   73.09551    178.00000  17.65563             12.94787
955.25688   1086.68807  109.00000  15.59110             9.16478
957.75000   1595.40385  208.00000  19.30210             14.23877
959.09615   167.34615   208.00000  18.57792             14.44445
959.81579   346.25789   190.00000  16.47785             14.73591
963.55689   1866.85030  167.00000  18.30154             12.35198
962.31429   794.32571   175.00000  16.43313             13.63861
962.41748   1711.62621  206.00000  17.44976             15.17267
962.88312   1078.70130  77.00000   10.20296             9.70308
966.26203   1456.89305  187.00000  20.67227             11.68372
966.01408   1776.17840  213.00000  21.03721             13.40042
972.66797   1528.39844  256.00000  26.59535             12.35701
969.55838   398.14721   197.00000  17.35119             14.55523
973.08889   1104.96889  225.00000  20.19128             15.27210
969.68056   86.14583    144.00000  15.07897             12.40459
968.62500   1061.92857  56.00000   9.85772              7.18586
970.47668   1667.71503  193.00000  17.81166             13.81020
971.14865   568.59459   148.00000  15.29901             12.33476
975.59172   1143.72781  169.00000  18.79534             11.50846
977.16917   273.46992   266.00000  22.00961             15.56188
973.99441   889.24581   179.00000  18.22696             12.66127
978.14224   1155.71121  232.00000  23.83912             13.39982
975.86036   1548.83333  222.00000  23.93884             11.98252
973.90968   1632.98065  155.00000  14.31393             13.99288
978.50893   413.26339   224.00000  18.05263             15.97515
977.05189   179.59434   212.00000  22.04732             12.30102
978.56463   1330.65306  147.00000  16.75707             11.51207
981.83459   446.22556   266.00000  20.95073             16.31259
981.63128   557.54749   179.00000  18.14892             12.61740
982.29167   213.55729   192.00000  16.05218             15.27789
984.61404   1570.97076  171.00000  22.52576             9.86666
981.93382   1887.53676  136.00000  14.73725             11.74301
982.12057   1017.11348  141.00000  16.19064             11.23851
987.12712   1095.29237  236.00000  19.34013             15.63550
986.06349   1472.26455  189.00000  19.09671             12.82252
987.81176   599.38235   170.00000  15.83846             13.77046
987.24227   1637.47938  194.00000  18.78326             13.29196
986.41573   901.96629   89.00000   12.73367             9.04002
993.29739   45.40523    306.00000  25.89793             15.32651
993.23485   805.12121   264.00000  23.53590             14.62164
986.26415   892.73585   53.00000   9.95935              6.86344
989.47468   1486.05696  158.00000  16.39124             12.36058
991.71300   931.43498   223.00000  17.95841             15.92704
995.12749   483.10359   251.00000  23.67202             13.68631
990.62319   586.34783   138.00000  14.05634             12.51817
991.53614   632.83735   166.00000  15.62221             13.61020
998.00281   659.06461   356.00000  26.00961             17.68690
997.52601   904.19075   173.00000  18.64166             12.05909
996.30263   1017.70614  228.00000  22.13026             13.64851
1001.41241  1056.98905  274.00000  29.01064             12.46465
995.65421   1153.77570  107.00000  11.99596             11.39582
996.72535   1896.45070  142.00000  15.52707             11.68493
997.48120   93.49624    133.00000  14.81762             11.45816
1004.18009  175.94787   211.00000  22.73280             12.57258
1000.15217  1959.93478  92.00000   12.66111             9.35978
1004.29956  988.02643   227.00000  19.46494             15.23284
1006.36726  1325.91593  226.00000  20.85296             13.90161
1004.27660  1463.25532  188.00000  16.95148             14.14505
1013.11781  245.71507   365.00000  28.81200             16.35354
1007.10455  1542.27273  220.00000  17.88908             15.71096
1011.02310  25.55116    303.00000  21.94022             17.90004
1008.41243  1140.10169  177.00000  19.13392             11.83314
1009.27097  812.29677   155.00000  15.75331             12.59535
1014.28000  1451.12800  250.00000  26.74087             12.12013
1010.30208  348.64583   192.00000  18.22844             13.53109
1011.13659  1836.75610  205.00000  17.73166             14.95510
1010.80606  1911.15152  165.00000  16.50923             12.90821
1007.00000  797.50000   38.00000   8.87815              5.44054
1012.50725  589.66087   345.00000  30.11571             14.74076
1012.34591  1863.82390  159.00000  17.94250             11.33074
1017.78966  154.51379   290.00000  22.74973             16.33108
1015.25664  1576.44248  226.00000  18.41428             15.85170
1012.20513  1763.14744  156.00000  19.46747             10.23802
1021.42412  805.42412   257.00000  24.89848             13.51488
1021.44000  1097.05714  175.00000  20.89570             10.69432
1019.91525  1311.41243  177.00000  17.08435             13.37087
1019.42742  96.92742    124.00000  13.17771             12.02626
1022.93204  1158.23301  206.00000  19.76503             13.68767
1021.34505  545.65815   313.00000  29.06303             13.90337
1024.05000  1071.60833  120.00000  18.79638             8.31475
1022.76250  1756.90625  160.00000  15.66677             13.09997
1024.65455  1061.24242  165.00000  18.02094             11.94161
1025.92228  1502.52850  193.00000  17.25421             14.57040
1027.51037  197.48548   241.00000  17.97143             17.19143
1028.56983  1565.08380  179.00000  16.75245             13.66122
1033.68182  696.87121   264.00000  23.76272             14.23587
1034.84118  116.60000   340.00000  30.20172             14.90041
1032.09783  1608.75543  184.00000  21.50882             11.17449
1035.65789  231.43233   266.00000  23.35243             14.59002
1036.13793  1126.12931  116.00000  16.44569             9.11243
1037.06338  1808.79577  142.00000  20.15790             9.39422
1038.75401  1160.21390  187.00000  16.16572             14.80520
1042.29944  320.72881   177.00000  21.18144             11.05869
1039.77301  1935.35583  163.00000  16.24013             12.93719
1039.40845  311.66197   71.00000   11.44176             8.11345
1044.10900  1574.31280  211.00000  19.58891             13.77812
1044.13613  1553.79581  191.00000  17.57990             13.89318
1044.30921  1844.36842  152.00000  19.00447             10.20176
1043.75472  1132.43396  53.00000   10.25714             6.64633
1051.37363  1106.08242  182.00000  23.73227             10.27843
1048.96791  1116.17112  187.00000  17.11912             14.13501
1049.43969  1262.48638  257.00000  20.08277             16.68053
1049.42932  1342.26702  191.00000  17.14355             14.33111
1050.93860  1521.07456  228.00000  22.08225             13.49258
1053.43772  200.61566   281.00000  24.38602             14.90491
1054.29148  1598.22870  223.00000  22.65245             12.87844
1057.12941  401.77255   255.00000  22.61857             14.37627
1058.35165  1547.00549  182.00000  17.88226             13.11000
1059.84000  356.38667   225.00000  17.39758             16.69432
1056.13580  1620.43210  81.00000   10.47226             9.86013
1063.15867  308.07380   271.00000  22.88710             15.34164
1061.45062  108.09877   162.00000  15.92000             13.03511
1059.92199  1922.35461  141.00000  16.25152             11.10581
1062.09740  1961.52597  154.00000  15.02756             13.50842
1062.90435  1763.43478  230.00000  20.20949             14.65506
1065.88889  846.56944   216.00000  27.79244             10.14205
1064.75661  818.47090   189.00000  17.81736             13.52847
1064.26792  1225.76981  265.00000  24.86531             13.64701
1066.16102  1628.05932  118.00000  17.35379             9.00104
1067.66102  278.85593   236.00000  21.64328             14.01360
1072.43784  1791.62162  185.00000  21.58107             11.27504
1068.37963  1177.61111  108.00000  12.03304             11.76147
1069.03106  2000.13665  161.00000  15.47701             13.26833
1075.28458  901.36759   253.00000  18.82078             17.40327
1075.71359  1185.94175  206.00000  19.45885             14.00229
1072.87831  1544.62963  189.00000  18.56955             13.05419
1075.25731  1317.91813  171.00000  18.01263             12.43244
1082.35865  1168.36709  237.00000  25.35210             12.35524
1080.94318  706.90909   264.00000  21.46053             15.82254
1077.96429  934.40179   224.00000  18.71135             15.67516
1077.30055  1861.03279  183.00000  17.83624             13.10952
1081.64423  1092.61058  208.00000  20.88074             12.98834
1081.00000  854.47429   175.00000  16.80376             13.34296
1077.10000  809.26000   50.00000   8.57374              7.47057
1087.22581  21.74194    248.00000  23.26509             13.71892
1085.40000  375.67826   230.00000  18.53525             15.85759
1086.23707  540.71121   232.00000  20.56086             15.04877
1086.09816  1241.26994  163.00000  30.12144             7.79756
1086.51813  1296.32642  193.00000  23.24193             10.95108
1091.14286  847.46561   189.00000  19.44485             12.79496
1090.03636  939.74545   165.00000  17.37424             12.69547
1093.21074  1084.68182  242.00000  20.27892             16.32487
1087.21622  1215.04865  185.00000  19.52460             12.07606
1086.90833  1809.62500  120.00000  14.98313             10.23986
1087.88034  1883.38462  117.00000  14.92889             10.06147
1090.47159  399.18182   176.00000  21.01408             10.68786
1091.41333  1853.46667  150.00000  14.28412             13.39799
1091.43956  2011.46154  182.00000  19.32344             12.31347
1094.34513  1642.28319  226.00000  23.85418             12.43894
1094.07927  418.94512   164.00000  15.38338             13.59638
1094.31441  1134.51092  229.00000  19.05210             15.44767
1093.85366  1274.31220  205.00000  19.85148             13.21777
1095.89444  1155.35556  180.00000  17.71602             12.96609
1099.58065  471.18433   217.00000  17.74725             15.62641
1104.05643  286.28527   319.00000  21.05358             19.55064
1102.92754  539.41304   138.00000  17.50871             10.45457
1102.75709  967.35223   247.00000  21.17854             15.00896
1102.58065  1668.08756  217.00000  22.59556             12.29354
1099.93706  1922.64336  143.00000  16.29620             11.20314
1103.81657  1174.94083  169.00000  18.08470             12.03619
1103.90871  1735.66390  241.00000  22.07179             14.00382
1103.36994  103.00000   173.00000  18.52168             11.91518
1106.85845  1706.67580  219.00000  20.02125             14.38404
1104.27311  1534.95378  238.00000  21.91685             14.27829
1105.37255  178.71078   204.00000  20.07492             13.05597
1110.42800  513.12800   250.00000  19.45934             16.52818
1111.26042  317.82639   288.00000  19.97495             18.92796
1105.94595  1961.00000  74.00000   11.43503             8.51096
1120.93190  1650.44086  279.00000  32.80866             10.94950
1114.34559  448.54779   272.00000  22.61906             15.47925
1121.43320  1129.15385  247.00000  29.64361             10.81969
1114.91096  592.04110   146.00000  14.93671             12.58728
1119.02954  1152.48523  237.00000  24.62652             12.48993
1115.03431  1853.38725  204.00000  19.97739             13.13786
1117.15385  991.34135   208.00000  18.83755             14.33862
1119.68914  1094.05618  267.00000  23.87993             14.76770
1118.85401  1178.07299  274.00000  41.88209             9.44466
1116.39394  163.88636   132.00000  14.73704             11.42604
1116.53543  1886.96850  127.00000  13.28598             12.16350
1121.10741  724.22963   270.00000  20.02997             17.26379
1118.42442  839.59884   172.00000  18.79528             11.79580
1119.45614  1238.11696  171.00000  15.62143             14.36051
1118.22527  1251.73626  182.00000  18.24635             13.07975
1119.57471  128.09195   174.00000  15.96635             13.95149
1119.08537  567.46951   164.00000  16.52329             12.71529
1126.97810  281.53650   274.00000  24.32230             14.63382
1123.34375  532.65625   128.00000  13.30123             12.31041
1120.79245  773.81132   53.00000   8.36038              8.13656
1123.46980  105.77181   149.00000  18.19406             10.73260
1125.67699  224.68584   226.00000  25.15336             11.58988
1124.60135  149.47297   148.00000  15.76396             11.98072
1125.75949  81.29747    158.00000  15.90639             12.66261
1130.64561  1008.90877  285.00000  25.69695             14.55714
1129.10163  1219.30081  246.00000  30.07840             10.54693
1129.81122  13.86735    196.00000  19.76427             12.72438
1131.14433  777.96907   97.00000   14.34142             8.71046
1130.42308  993.51538   130.00000  14.25918             11.79408
1142.27881  1180.17100  269.00000  32.15032             10.83050
1133.85149  1186.63366  101.00000  15.42927             8.60532
1137.42478  120.46903   113.00000  13.60001             10.58615
1139.22222  1533.56863  153.00000  15.11255             13.13580
1138.71538  27.89231    130.00000  15.74476             10.62244
1141.36478  1893.86164  159.00000  15.66685             12.98916
1140.77083  107.31250   96.00000   14.40448             8.55033
1146.27074  1227.84716  229.00000  24.46210             12.29718
1142.68056  1914.55556  72.00000   10.99085             8.69018
1149.75401  426.31016   187.00000  16.87880             14.21906
1150.97015  1047.34701  268.00000  20.51284             16.82301
1152.70476  323.29048   210.00000  20.78757             12.93312
1152.12766  546.39716   141.00000  19.35216             9.59389
1152.47917  803.06771   192.00000  18.52885             13.38599
1150.38583  1530.20472  127.00000  14.26480             11.55398
1160.08434  1676.41687  415.00000  34.95776             15.28795
1151.31658  1802.53769  199.00000  17.46835             14.57279
1158.52195  1131.56098  205.00000  27.05648             10.60219
1157.08784  538.66892   148.00000  17.52293             10.80737
1158.03627  271.21762   193.00000  16.55248             14.89074
1155.71698  130.17925   106.00000  14.12036             9.72203
1159.98598  1145.12617  214.00000  20.29117             13.68167
1159.96954  144.07107   197.00000  17.44919             14.42498
1163.34731  230.58683   167.00000  15.93932             13.38719
1165.09268  1242.99024  205.00000  17.56592             14.95561
1167.58480  777.24561   171.00000  24.74747             9.23651
1171.24390  663.26220   164.00000  19.42575             10.95459
1170.49268  445.03415   205.00000  17.79889             14.72742
1174.44828  1279.41034  290.00000  22.58294             16.79793
1174.52632  130.61404   228.00000  21.89237             13.41169
1176.99203  780.01594   251.00000  30.78296             11.61560
1176.98795  288.23494   166.00000  16.37721             12.93208
1180.58621  321.98276   232.00000  18.04490             16.46886
1180.98222  541.30222   225.00000  18.36882             15.66880
1180.78968  812.28175   252.00000  20.04585             16.38414
1181.41667  1308.26136  264.00000  21.05568             16.28533
1180.67089  1821.42405  158.00000  16.21032             12.41713
1185.03321  110.99631   271.00000  20.83798             16.82218
1186.04444  750.54722   360.00000  23.79724             20.90672
1185.15948  191.70690   232.00000  17.45860             17.05069
1182.56863  1957.62745  102.00000  14.40951             9.02456
1187.78912  1167.98639  147.00000  16.35188             11.64483
1189.98160  1180.20859  163.00000  22.24657             9.62592
1189.09581  254.13174   167.00000  16.44224             12.99220
1185.73684  1150.90789  76.00000   11.43902             8.55384
1188.36364  652.83117   154.00000  14.82609             13.37393
1189.41341  1283.92737  179.00000  18.74127             12.81765
1187.32877  1266.79452  73.00000   11.43905             8.17636
1191.12849  1857.43575  179.00000  19.08042             11.96310
1193.79853  225.32967   273.00000  23.27793             15.24353
1192.24257  301.95545   202.00000  18.16447             14.26238
1194.92553  1145.01064  188.00000  21.64533             11.22240
1190.83673  1222.24490  98.00000   12.31609             10.25736
1190.92593  1883.53086  81.00000   11.59849             8.96298
1191.30000  524.75000   60.00000   11.04109             6.90321
1196.75000  722.61111   252.00000  24.13795             14.39697
1192.93382  906.05147   136.00000  15.92343             10.99638
1202.32821  1217.26154  195.00000  32.53221             8.17291
1197.48223  1548.53299  197.00000  19.31761             12.99610
1197.19763  84.60474    253.00000  21.18807             15.33771
1207.51351  1171.67181  259.00000  26.36236             13.26864
1200.00000  1253.63793  58.00000   11.40362             6.55990
1202.29710  1821.42754  138.00000  15.12389             11.67572
1203.06500  189.33000   200.00000  20.37713             12.65553
1207.07480  1289.84252  254.00000  20.28379             16.24962
1206.89773  643.61932   176.00000  18.66300             12.19638
1205.81250  1226.97656  128.00000  15.59635             10.59753
1207.40909  337.23295   176.00000  17.83917             12.91722
1210.03902  973.81463   205.00000  18.90627             13.85318
1209.37696  133.86911   191.00000  17.39058             13.98368
1211.69065  284.75180   278.00000  27.31153             12.98792
1213.91772  866.32595   316.00000  23.00958             17.81314
1214.32328  1336.80603  232.00000  25.42506             11.87213
1215.90909  314.22159   176.00000  19.25275             11.90703
1215.39691  74.26289    194.00000  16.69101             14.83971
1221.70863  1152.69065  278.00000  27.32513             13.13029
1221.80000  1694.04490  245.00000  24.07958             13.59740
1224.92926  469.17363   311.00000  27.77806             14.42166
1219.21304  180.20435   230.00000  20.90814             14.31550
1219.19737  1870.27632  76.00000   12.18467             8.18243
1224.84848  644.90303   165.00000  17.00048             12.38251
1224.40884  380.72928   181.00000  17.63556             13.15323
1231.65330  250.97170   424.00000  29.72158             18.79013
1227.35294  1809.27731  119.00000  14.85615             10.40705
1231.60804  688.69347   199.00000  22.82260             11.59239
1230.83395  1332.94465  271.00000  21.64335             16.18270
1230.84286  97.55238    210.00000  19.10068             14.12129
1233.47881  1261.80508  236.00000  20.08483             14.99327
1233.60440  565.48901   182.00000  17.89120             13.08607
1233.23729  371.33333   177.00000  17.25479             13.30309
1234.33594  1961.70312  128.00000  14.19474             11.55069
1237.23372  313.11494   261.00000  25.97823             13.14466
1240.32911  1299.05907  237.00000  19.90194             15.23589
1243.68261  974.40000   230.00000  22.20705             13.37605
1242.88506  915.05364   261.00000  20.79309             16.22268
1244.16466  134.12450   249.00000  19.58445             16.41703
1245.95149  158.54104   268.00000  18.91524             18.13054
1246.62338  655.83550   231.00000  20.14879             14.72104
1246.09744  401.51282   195.00000  19.04862             13.17537
1247.25472  1587.25943  212.00000  20.07355             13.54218
1251.49465  78.60160    374.00000  24.37846             19.64732
1251.95279  1136.75966  233.00000  22.17574             14.12566
1251.92237  1097.63927  219.00000  17.77576             15.95253
1253.95122  1369.84553  246.00000  22.07358             14.28214
1253.51119  560.51119   268.00000  20.13661             17.59255
1256.31230  799.83596   317.00000  27.49910             15.05964
1250.70312  1075.89844  128.00000  13.38640             12.16980
1257.35417  588.34167   240.00000  26.90366             11.75805
1250.12500  1212.12500  24.00000   7.01851              4.71598
1251.62887  1860.54639  97.00000   12.80478             9.90394
1264.58779  1049.99618  262.00000  22.86191             15.84622
1255.51724  1164.17241  29.00000   7.02379              5.35433
1265.25210  1698.75210  238.00000  25.71345             11.88792
1260.71654  630.01575   127.00000  14.06008             11.59220
1262.26012  1258.08092  173.00000  19.89008             11.29150
1262.10674  49.40449    178.00000  19.71420             11.86486
1263.76382  1598.80402  199.00000  16.28589             15.59399
1264.56069  975.36416   173.00000  16.53405             13.40453
1267.32749  948.44444   171.00000  17.07050             12.88192
1269.14208  959.16940   183.00000  21.66356             10.97766
1266.70677  129.39850   133.00000  14.88974             11.57922
1267.04192  1825.35329  167.00000  18.47812             11.61074
1268.97987  283.81208   149.00000  17.61312             10.81254
1266.16438  163.56164   73.00000   10.57247             8.80868
1273.16491  1218.68070  285.00000  26.77783             13.96276
1277.13750  1278.35833  240.00000  29.51957             10.46446
1269.88571  272.91429   70.00000   10.81945             8.31427
1274.87649  427.23904   251.00000  20.33383             16.21097
1279.36898  968.50802   187.00000  20.39515             12.09136
1278.83251  611.99507   203.00000  20.26972             13.02515
1276.64497  1602.94083  169.00000  17.51676             12.28129
1281.33032  1163.08145  221.00000  21.78923             13.10356
1283.52399  338.39114   271.00000  23.77240             14.56741
1278.59259  1150.75926  108.00000  12.10064             11.40138
1286.07692  1064.04072  221.00000  24.81871             11.51120
1284.78346  54.01575    254.00000  23.56422             13.78365
1284.47959  1836.57143  98.00000   14.36141             9.18896
1288.22819  562.62416   149.00000  18.86776             10.12150
1290.98061  835.34903   361.00000  25.65561             18.72857
1294.89844  1245.13672  256.00000  27.38773             12.22746
1289.47581  583.71774   124.00000  13.40822             11.84171
1291.16216  608.43243   111.00000  12.97850             11.05440
1294.49714  459.61143   175.00000  16.66432             13.36601
1292.80303  237.66667   132.00000  14.42266             11.80705
1297.93450  1689.93013  229.00000  21.90604             13.38106
1296.90370  190.08148   135.00000  14.68142             11.83191
1300.11236  939.80337   178.00000  17.11109             13.26849
1300.39873  144.81646   158.00000  16.99659             12.12938
1306.71282  581.61538   195.00000  28.65643             8.97543
1309.01215  997.59514   247.00000  29.80525             11.25208
1308.11864  1374.82203  236.00000  23.27607             13.20507
1307.25888  1648.79188  197.00000  18.23208             13.81380
1309.03788  657.27273   132.00000  14.97948             11.45118
1312.22901  1818.00763  131.00000  14.58371             11.51046
1319.08097  1064.73279  247.00000  25.62060             12.48763
1315.23973  525.03425   146.00000  16.76408             11.10350
1316.22222  254.02020   198.00000  17.93828             14.73289
1315.40909  1856.68182  154.00000  16.87519             11.64723
1319.51786  587.25000   168.00000  16.17167             13.31471
1323.05833  1304.71667  120.00000  19.51275             8.01127
1319.40667  1938.28000  150.00000  16.53200             11.59394
1327.27376  1165.44867  263.00000  26.07797             13.20642
1323.59906  1188.60377  212.00000  20.08086             13.53318
1326.39519  488.36082   291.00000  23.68859             15.79380
1323.63115  599.81148   122.00000  13.72341             11.36595
1325.00000  2033.74016  127.00000  16.68781             9.79775
1328.46226  560.64151   212.00000  21.35367             12.84958
1326.63710  1917.55645  124.00000  15.21726             10.55031
1332.47410  517.98805   251.00000  20.89214             15.42439
1331.91342  999.22511   231.00000  24.15021             12.69869
1328.93500  1831.70000  200.00000  18.43006             13.91493
1332.87815  929.05042   238.00000  22.06968             13.98122
1334.79592  193.97449   196.00000  18.08193             13.93131
1337.72680  1685.53608  194.00000  19.84547             12.52272
1337.04412  1960.94118  136.00000  14.95753             11.76024
1342.54333  603.63333   300.00000  23.68740             17.01390
1341.33083  903.92481   266.00000  20.83943             16.76274
1343.42979  1311.15319  235.00000  22.43891             13.91243
1342.73944  357.55282   284.00000  22.89319             15.97214
1339.60638  973.69149   94.00000   14.21219             8.49351
1344.02623  1078.17705  305.00000  23.72180             16.40681
1344.22511  130.93506   231.00000  18.87375             15.83337
1340.36111  256.00000   108.00000  13.18810             10.44858
1350.92491  1188.23208  293.00000  31.04709             12.09010
1349.64189  1375.56757  296.00000  27.18338             14.06235
1353.98294  1217.47099  293.00000  26.12282             15.58058
1346.20455  149.20455   88.00000   11.94087             9.57669
1353.65862  1171.18276  290.00000  22.62864             16.49830
1350.62963  1289.16667  162.00000  17.09375             12.33199
1351.32836  592.50746   134.00000  15.10398             11.35824
1353.05017  1874.76923  299.00000  22.72907             16.86169
1358.90580  261.92754   138.00000  15.51509             11.38959
1357.06667  182.92000   75.00000   10.36605             9.22017
1359.65306  953.78571   196.00000  20.20742             12.58845
1361.70370  450.68254   189.00000  26.44240             9.53991
1364.59031  1027.88546  227.00000  22.61660             12.92707
1365.13839  611.19196   224.00000  22.45636             13.32941
1363.13514  1293.56757  74.00000   11.23844             8.45543
1370.71689  523.59817   219.00000  21.49696             13.34565
1368.13187  1690.42308  182.00000  15.75908             14.92043
1370.26816  244.40223   179.00000  19.16136             12.04310
1370.76838  634.26103   272.00000  20.77216             17.04263
1372.53535  866.40404   297.00000  21.76149             18.25061
1373.40851  92.11915    235.00000  19.70581             15.46777
1370.54839  258.61290   62.00000   9.12999              8.69641
1375.71388  383.75071   353.00000  27.10020             17.30513
1374.82621  417.33618   351.00000  29.73908             15.52121
1377.25943  1141.78774  212.00000  19.72768             13.84967
1376.68342  949.77387   199.00000  21.61720             11.96241
1379.94898  585.33673   196.00000  17.65002             14.21441
1382.63014  675.51142   219.00000  18.60852             15.36192
1379.45714  253.94286   105.00000  13.20142             10.14950
1382.00803  1674.63855  249.00000  20.68497             15.56591
1384.41126  1156.14286  231.00000  20.50864             14.56258
1385.66304  1347.69022  184.00000  19.22524             12.47585
1386.25806  787.79724   217.00000  19.07829             14.51682
1388.59649  48.13596    228.00000  22.68103             12.95349
1392.75127  495.96954   197.00000  22.52515             11.35486
1390.27149  194.32127   221.00000  20.95727             13.45709
1386.76744  996.13953   43.00000   9.61856              5.72871
1391.30952  1050.07540  252.00000  24.44499             13.41379
1394.33645  1228.80374  214.00000  25.40030             10.94528
1394.50239  1002.71292  209.00000  19.26247             14.03285
1393.13736  1697.04396  182.00000  19.79076             11.72551
1395.49091  809.99091   220.00000  21.93767             12.92108
1391.28205  905.87179   39.00000   7.56326              6.98201
1397.02318  722.21192   302.00000  26.88396             14.72291
1399.39815  210.98611   216.00000  18.94088             14.74599
1401.94444  470.07143   252.00000  24.20896             13.80424
1400.80797  1318.54348  276.00000  23.20721             15.37340
1401.08219  580.24658   146.00000  16.86882             11.02701
1404.09388  791.63265   245.00000  25.64861             12.34188
1404.83471  403.28926   242.00000  19.07120             16.56844
1407.40329  1389.99177  243.00000  24.18533             12.91909
1402.62712  1679.96610  177.00000  17.33211             13.12604
1403.04396  251.87912   91.00000   13.03473             8.88673
1404.51471  1216.22549  204.00000  16.61035             15.68016
1406.50877  1357.01754  228.00000  21.66299             13.63071
1405.59116  1979.82873  181.00000  16.75208             13.76933
1412.84960  762.88127   379.00000  30.46651             17.04646
1409.89062  1669.66406  128.00000  15.18064             10.75528
1413.71875  69.21094    256.00000  25.83126             13.26720
1410.85000  1718.72500  160.00000  16.53926             12.37266
1412.49239  236.09645   197.00000  17.61611             14.30488
1416.30798  986.06084   263.00000  21.41578             16.19323
1416.96429  1234.64683  252.00000  21.70956             15.37096
1416.65775  287.94118   187.00000  19.29722             12.64988
1419.44076  1254.79147  211.00000  21.89365             12.70189
1418.36181  449.42714   199.00000  20.32960             12.51593
1415.61404  1007.24561  57.00000   10.40761             6.95219
1424.44366  637.75352   284.00000  26.35402             13.99167
1425.13091  1189.24364  275.00000  22.17600             17.44657
1424.64737  562.74737   190.00000  17.19260             14.24351
1424.81034  31.32184    174.00000  18.55150             12.92239
1427.78351  1115.50859  291.00000  25.12843             15.79563
1428.21196  908.34783   184.00000  17.52801             13.45949
1427.34177  1368.69620  158.00000  15.00576             13.46869
1435.29130  981.33913   230.00000  20.24821             14.60298
1436.17181  265.72687   227.00000  20.65719             14.12664
1437.01587  234.45503   189.00000  19.01765             12.71446
1436.76712  414.34703   219.00000  19.54625             14.50394
1435.56284  1245.54098  183.00000  19.55958             11.97718
1439.31600  1137.44000  250.00000  23.78914             14.07428
1439.76419  1346.88210  229.00000  21.81076             13.57237
1444.13462  891.86218   312.00000  23.22344             17.34199
1441.72674  248.58721   172.00000  15.42769             14.20515
1444.36932  403.41477   176.00000  17.36190             13.16995
1443.29333  1001.76000  75.00000   11.63805             8.29241
1450.81206  637.60638   282.00000  25.15185             14.52901
1449.90476  426.71429   231.00000  18.87986             15.73990
1452.69796  389.54286   245.00000  18.41702             17.09833
1454.37545  275.99278   277.00000  20.23681             17.60042
1461.29268  1246.98258  287.00000  34.63660             11.75550
1456.17788  1274.17788  208.00000  21.31412             12.59745
1453.99502  88.51244    201.00000  16.49601             15.58345
1451.94444  979.85185   54.00000   9.62737              7.11455
1453.91667  149.54167   72.00000   10.37041             8.83705
1459.87387  998.05856   222.00000  18.51643             15.33188
1459.00481  1729.39423  208.00000  16.54854             16.14493
1460.58491  533.47642   212.00000  17.37146             15.70947
1468.24057  61.32075    212.00000  17.47383             15.47057
1465.60248  110.84472   161.00000  16.59864             12.54382
1474.25874  212.88811   143.00000  13.74208             13.27846
1474.90674  1224.94819  193.00000  22.30960             11.12930
1476.63687  73.53631    179.00000  16.20828             14.19060
1475.50000  994.00000   48.00000   8.60259              7.02345
1480.84574  1270.36170  188.00000  19.71774             12.32074
1479.52577  520.10825   194.00000  17.25551             14.35011
1484.17898  41.92045    352.00000  25.11411             17.94396
1488.06667  266.60494   405.00000  27.59618             21.21754
1482.36287  1288.09283  237.00000  19.04003             15.90029
1483.51012  1355.92308  247.00000  20.30112             15.72830
1485.60684  207.32479   117.00000  13.39564             11.16402
1488.41951  240.99512   205.00000  17.89020             14.72521
1488.40187  981.61682   107.00000  13.52712             10.13782
1492.93722  1386.70404  223.00000  21.14472             13.57429
1492.25904  1232.57831  166.00000  16.87087             12.61609
1494.42938  222.63842   177.00000  15.96900             14.13155
1494.47253  289.47802   182.00000  17.69135             13.20201
1492.33333  999.56522   69.00000   11.81446             7.49639
1496.74583  111.72917   240.00000  19.87209             15.45616
1496.28846  974.71154   52.00000   8.21530              8.03837
1503.80357  987.10714   224.00000  18.08424             15.93340
1505.86166  1356.33597  253.00000  20.92745             15.52535
1513.60241  654.08434   249.00000  25.27798             12.84769
1516.14359  1298.25128  195.00000  22.49317             11.06620
1513.64844  856.86719   128.00000  15.38980             10.68384
1515.88835  47.11650    206.00000  17.33903             15.16990
1515.50711  240.45972   211.00000  20.65851             13.13457
1518.71930  120.22368   228.00000  18.89748             15.37997
1517.78974  867.58974   195.00000  20.21029             12.49082
1517.72222  981.34722   216.00000  17.01963             16.20192
1515.76190  998.58730   63.00000   10.86657             7.53825
1530.23077  1280.13333  195.00000  17.28622             14.51396
1537.22727  1148.53939  330.00000  27.52050             15.93476
1532.79358  994.16972   218.00000  17.90558             15.55369
1531.36000  37.31200    125.00000  13.59984             11.77206
1538.02101  1396.67227  238.00000  26.05059             11.84965
1534.26923  1257.63462  156.00000  16.68448             12.05432
1536.63563  71.36437    247.00000  18.52838             17.20692
1534.92079  970.03960   101.00000  12.65495             10.19630
1536.64935  230.65584   154.00000  16.79779             11.76382
1539.39035  664.33772   228.00000  19.29942             15.41836
1547.87578  117.48447   161.00000  17.83526             11.56942
1550.75686  968.48627   255.00000  22.16879             15.11278
1547.40278  987.54167   72.00000   11.81334             7.79169
1553.17610  259.12579   159.00000  15.62110             12.95417
1559.76978  996.89928   278.00000  25.33341             14.59179
1559.77987  831.77358   159.00000  19.61392             10.39656
1561.13559  153.24576   118.00000  12.38797             12.24564
1560.04348  956.04348   46.00000   10.67065             5.48422
1565.68387  219.67742   155.00000  17.47209             11.30476
1567.25862  1364.02155  232.00000  20.62320             14.42767
1581.17193  285.11930   285.00000  21.64863             16.90170
1576.62500  987.23214   56.00000   9.56895              7.49534
1583.47917  969.30833   240.00000  19.96799             15.47959
1584.63072  1171.50327  306.00000  25.93760             15.19761
1588.03960  1374.47030  202.00000  19.40888             13.86244
1584.48718  98.33333    117.00000  12.44074             12.02539
1591.07639  207.40972   144.00000  15.75073             11.68198
1596.83333  246.08333   192.00000  19.31687             12.72017
1600.90278  970.24074   216.00000  19.82870             13.96967
1599.68182  1193.19697  198.00000  21.94645             11.53263
1604.71163  1271.93953  215.00000  23.49809             12.01761
1607.96135  150.89855   207.00000  17.89321             14.79626
1606.67333  205.12667   150.00000  14.52376             13.28268
1607.59160  229.37405   262.00000  21.34990             15.66563
1611.31604  1290.92453  212.00000  18.54120             14.74202
1616.62857  951.20408   245.00000  19.39341             17.53811
1622.08527  790.21318   258.00000  26.37760             12.93509
1619.29299  1246.35669  314.00000  29.19679             13.78584
1624.13100  1374.25764  229.00000  21.69614             14.09303
1629.98693  87.28105    153.00000  16.02934             12.39820
1628.98611  152.40278   144.00000  14.77317             12.44719
1629.35036  198.71533   137.00000  14.54799             12.09634
1633.54967  113.80132   151.00000  16.77598             11.60674
1634.47980  227.93434   198.00000  17.25645             14.65144
1640.22995  156.37433   187.00000  18.69189             12.78854
1643.35616  947.30137   219.00000  16.82958             16.59082
1650.92857  23.16484    182.00000  17.96841             12.92600
1655.39044  779.77689   251.00000  30.50100             10.93257
1651.71094  113.50000   128.00000  13.64289             12.01705
1656.74020  1323.54412  204.00000  26.91950             9.78363
1660.96711  102.20395   152.00000  16.33453             11.87990
1658.68182  934.20455   44.00000   8.79181              6.32861
1665.70833  242.97619   168.00000  16.39169             13.10542
1671.79233  889.29073   313.00000  24.36466             16.96307
1666.37705  914.04918   61.00000   9.37878              8.25538
1670.47368  942.86842   38.00000   9.17472              5.26754
1679.50467  861.11215   214.00000  21.18048             13.12088
1675.73684  18.66316    95.00000   11.81296             10.27690
1678.30601  921.12022   183.00000  17.83010             13.11103
1683.31897  768.87931   232.00000  24.89388             11.99797
1679.89547  817.53310   287.00000  26.06910             14.59705
1679.90625  1349.78125  160.00000  15.67239             13.10992
1682.74436  234.30075   133.00000  14.82988             11.48859
1687.23232  844.12626   198.00000  17.29045             14.59910
1689.71429  246.48469   196.00000  16.16754             15.67771
1691.67722  119.43671   158.00000  17.28623             11.81553
1692.90000  1913.26923  130.00000  15.16104             11.31201
1691.98347  41.44628    121.00000  13.03345             11.89052
1694.19697  814.74242   66.00000   9.45115              8.89805
1697.50000  931.00000   42.00000   7.55007              7.06071
1698.76364  797.00000   55.00000   8.91069              7.90836
1701.53448  139.52586   116.00000  13.63114             10.81937
1701.44262  923.40984   61.00000   9.94077              7.81853
1708.06780  202.51412   177.00000  16.32277             13.86941
1717.15074  1369.48162  272.00000  24.36744             14.34573
1712.50714  1776.17857  140.00000  15.42319             11.56411
1714.21176  1753.74706  170.00000  16.95632             12.86174
1722.35772  769.30894   246.00000  25.82393             12.72046
1719.76471  1734.41830  153.00000  15.33207             12.82514
1723.53226  87.22581    124.00000  14.66065             10.81698
1724.07263  268.83240   179.00000  16.40131             13.94500
1724.85326  1665.22283  184.00000  17.81628             13.16311
1725.23418  1637.72152  158.00000  14.53872             13.90296
1740.45699  278.04301   186.00000  16.13013             14.72678
1742.21675  1398.90148  203.00000  20.19170             13.02892
1749.39300  768.08949   257.00000  23.46177             13.98291
1761.40506  89.40506    158.00000  16.03528             12.75670
1760.92857  278.70779   154.00000  16.45857             11.92532
1778.44776  126.02985   134.00000  14.92691             11.44466
1781.55224  220.54229   201.00000  17.50620             14.64295
1803.76000  763.03111   225.00000  23.54932             12.31058
1800.58369  256.34335   233.00000  20.63652             14.48510
1804.16256  312.31527   203.00000  16.43405             15.83373
1815.23757  78.30939    181.00000  16.53416             14.06179
1827.23362  1464.05698  351.00000  33.19728             14.63909
1828.05856  768.81081   222.00000  24.62068             11.55192
1833.57143  316.17262   168.00000  16.68684             12.83376
1840.38208  220.16509   212.00000  19.82618             13.66720
1883.35461  764.29433   282.00000  23.54250             15.38621
1896.10442  218.03213   249.00000  23.80371             13.50188
1927.12136  773.39320   206.00000  19.77244             13.54931
1959.30833  59.31667    120.00000  16.03017             9.71809
2006.93333  75.57917    240.00000  18.51636             16.69450