# Filename: Nuclei_416_ctrl_60x_010.npz
# Voxel size (nm): (108, 108)
# Area quantity: voxels
# Num nuclei detected: 1728
Y           X           AREA       MAJOR_AXIS_LENGTH    MINOR_AXIS_LENGTH
28.75102    773.54286   245.00000  20.85962             15.10946
32.04545    1043.83636  110.00000  13.83017             10.19677
51.94872    264.23077   117.00000  13.65300             11.16392
57.96364    748.44242   165.00000  16.23513             13.22009
57.72611    921.12102   157.00000  15.54479             12.93128
63.39474    469.82895   152.00000  17.02634             11.41493
69.55914    786.76344   93.00000   11.95449             9.89456
74.11486    1142.30405  148.00000  13.83010             13.67223
77.15385    459.38462   130.00000  13.22158             12.59724
78.28188    1298.21477  149.00000  14.98687             12.81627
82.20000    1035.58182  110.00000  15.61991             10.01083
88.70936    702.11330   203.00000  17.22728             15.04243
88.11806    872.09722   144.00000  15.67266             11.83658
93.49275    1577.78261  138.00000  18.26351             9.95674
98.70616    654.30806   211.00000  17.58766             15.54208
105.76730   1101.55346  159.00000  17.28358             11.75487
105.20000   406.21600   125.00000  15.55814             10.61384
109.77206   912.97794   136.00000  16.00579             10.93990
111.72766   795.84681   235.00000  19.71346             15.24872
117.74405   610.50000   168.00000  17.65399             12.20276
118.81034   727.93966   232.00000  19.27859             15.38849
119.21678   437.49650   143.00000  14.43198             12.84444
119.13103   1470.51724  145.00000  15.30721             12.11110
121.82915   647.57286   199.00000  16.81432             15.19201
125.76389   700.36806   144.00000  15.54752             11.82247
127.41441   687.58559   111.00000  13.10823             10.88405
133.75455   428.92727   110.00000  15.16305             9.30380
136.75214   444.06838   117.00000  14.04069             10.62603
142.95694   1118.85167  209.00000  19.31411             14.04911
145.56853   1023.21827  197.00000  21.77952             11.59568
141.00000   690.52941   68.00000   10.62794             8.12969
146.19231   401.28365   208.00000  20.01341             13.26534
147.11940   860.22886   201.00000  18.86729             13.64999
148.87879   576.66667   198.00000  18.76252             13.53990
149.86538   1039.18590  156.00000  19.47488             10.26765
149.66897   421.97931   145.00000  15.47994             12.01110
150.89000   810.42000   200.00000  17.90565             14.30146
152.75758   1303.21591  264.00000  20.06555             16.79799
153.02020   708.28788   198.00000  20.37693             12.55346
154.55399   438.63850   213.00000  19.40754             14.02240
164.58571   1380.62857  280.00000  21.96005             16.31834
166.60000   320.27647   170.00000  14.99039             14.44582
173.96059   587.82266   203.00000  23.12146             11.24572
173.18286   404.38286   175.00000  15.92417             14.07239
174.62326   680.38605   215.00000  20.66877             13.41701
175.98283   1350.06867  233.00000  20.31974             14.69833
176.95714   812.57619   210.00000  20.29206             13.21311
174.52096   1444.88623  167.00000  15.88640             13.48611
173.07627   1506.53390  118.00000  14.06297             11.27256
180.77037   482.77037   135.00000  15.62018             11.15067
189.81579   178.17293   266.00000  22.97083             14.90560
187.96815   1532.21019  157.00000  16.93513             11.85343
189.01639   1461.04098  122.00000  13.96510             11.11316
193.01685   331.27528   178.00000  15.73525             14.51518
193.25664   644.13274   113.00000  13.64671             10.62505
198.63636   533.09848   132.00000  14.66857             11.76094
199.82249   1442.84024  169.00000  15.94686             13.57091
203.14602   659.80973   226.00000  18.62020             15.52320
202.16111   776.49444   180.00000  18.90927             12.18658
205.01333   616.36000   150.00000  17.25036             11.11764
210.02632   1045.21053  152.00000  19.04292             10.45364
211.71196   502.90217   184.00000  17.18664             13.69576
213.10828   1298.77070  157.00000  16.30165             12.45954
215.82174   701.66957   230.00000  20.39033             14.47024
216.45946   1441.73874  111.00000  12.87432             11.16696
219.49708   1217.08772  171.00000  17.13673             12.77373
218.85496   376.71756   131.00000  14.32986             11.66207
222.78102   1464.70073  137.00000  17.88349             9.84379
226.31973   137.45578   147.00000  15.60769             12.08748
226.93023   661.67442   86.00000   11.37510             10.36073
229.52795   1034.31056  161.00000  16.35475             12.56675
231.04464   509.77679   112.00000  14.66389             9.79059
235.48175   439.40876   137.00000  13.54761             13.05697
236.51049   379.27972   143.00000  15.77724             11.52831
237.35606   721.48485   132.00000  13.77480             12.25901
246.73967   1003.90496  242.00000  20.86257             14.93635
247.90377   645.39331   239.00000  22.11710             13.81987
245.20915   870.52288   153.00000  18.38103             10.70907
251.20312   843.85938   256.00000  22.68975             14.54127
250.10390   374.25325   154.00000  14.85787             13.23781
249.32353   387.97059   136.00000  14.33456             12.10284
253.55500   726.67000   200.00000  17.28419             14.84136
251.61582   1438.72881  177.00000  15.31186             14.73295
255.78443   513.37725   167.00000  17.99122             11.91998
254.65217   1572.76087  138.00000  13.39440             13.14800
256.13816   355.63816   152.00000  16.35921             11.87998
258.90043   481.41991   231.00000  19.10993             15.61563
262.79439   212.84112   214.00000  19.08210             14.32692
260.68841   246.24638   138.00000  14.84341             11.95599
263.50000   711.76800   250.00000  22.88640             14.10105
258.94444   1409.00000  108.00000  14.82560             9.61502
262.27982   445.86239   218.00000  18.49638             15.12874
264.30921   317.47368   152.00000  15.22752             12.79608
264.96407   424.20958   167.00000  15.93768             13.47865
267.72441   350.33071   127.00000  13.90731             11.76273
268.85981   617.67290   107.00000  14.58181             9.78644
273.48134   1026.25373  268.00000  21.47218             16.11338
273.86826   259.28743   167.00000  16.63769             12.82240
279.50000   632.72619   168.00000  17.32171             12.42490
278.62044   463.76642   137.00000  16.15183             10.88757
281.53614   508.40964   166.00000  16.39834             12.97832
281.23077   79.46154    130.00000  14.30771             11.67831
281.71545   351.43089   123.00000  13.31939             11.78337
282.69886   331.08523   176.00000  17.66353             12.75203
286.12346   696.03292   243.00000  19.17640             16.55631
281.92727   303.65455   110.00000  12.74559             10.97068
283.04587   362.42202   109.00000  14.76968             9.48784
287.82143   1336.43367  196.00000  25.12429             10.17528
286.82734   376.27338   139.00000  13.99329             12.74136
287.68987   487.42405   158.00000  15.33828             13.14831
291.32031   1068.72266  256.00000  23.73586             13.77222
294.31507   931.01370   146.00000  20.53651             9.25159
293.16304   365.97826   92.00000   11.27895             10.52555
296.39896   452.26943   193.00000  17.70426             14.00337
309.09426   757.83197   244.00000  25.75655             12.59741
305.45665   230.06358   173.00000  17.37497             12.84157
304.50926   1537.03704  108.00000  13.96728             9.88842
305.38776   326.83673   147.00000  15.30972             12.27151
310.34574   496.56915   188.00000  20.55548             11.69807
311.59278   730.80928   194.00000  17.40637             14.24707
313.97059   1422.67059  170.00000  16.13023             13.46349
316.66047   1080.40930  215.00000  19.16164             14.30140
321.75000   629.65064   312.00000  23.57854             17.04060
321.08122   1283.17259  197.00000  17.17734             14.60935
319.96721   1350.31967  122.00000  13.09861             11.86897
321.49727   519.06011   183.00000  18.40439             13.01687
325.89286   646.22959   196.00000  22.97254             11.08274
325.54822   1337.69036  197.00000  20.51695             12.27109
321.32727   1539.66364  110.00000  13.58291             10.44721
326.27300   842.71513   337.00000  24.48708             18.11287
325.26087   336.45963   161.00000  17.49131             11.76351
330.27660   1386.53191  188.00000  26.18522             9.69251
331.46622   1530.41892  148.00000  14.59756             12.96059
336.43750   1221.26923  208.00000  17.75104             15.16022
333.80172   1612.49138  116.00000  13.69280             10.96772
338.09483   711.93966   232.00000  19.92226             15.01280
339.19214   1040.00000  229.00000  21.41550             13.77422
338.58125   313.25000   160.00000  15.90751             12.81583
338.46243   1173.71676  173.00000  16.51298             13.35263
338.74775   1598.40090  222.00000  18.32730             15.46567
343.68485   108.99394   165.00000  15.35815             13.77277
345.91935   453.03226   124.00000  14.16388             11.13144
348.17788   1104.13462  208.00000  18.99063             14.01175
346.59310   430.38621   145.00000  15.66493             11.89155
348.27333   486.31333   150.00000  17.45717             10.96423
349.09662   385.82126   207.00000  19.05029             14.02072
352.30811   262.60000   185.00000  17.13005             14.16797
351.32432   410.32973   185.00000  17.79749             13.36392
354.19600   793.70400   250.00000  22.24829             14.34507
353.35648   1188.81481  216.00000  19.52463             14.15730
350.02439   148.39024   82.00000   10.92752             9.89194
352.98870   1156.68362  177.00000  16.36868             13.80491
356.73125   1307.93125  160.00000  19.27378             10.82082
354.98742   1360.57233  159.00000  17.84691             11.40089
359.78425   307.39384   292.00000  26.89237             13.97595
358.30476   953.16667   210.00000  18.94374             14.18666
357.27727   1590.51364  220.00000  18.47547             15.37313
359.90845   395.60563   142.00000  15.04524             12.11582
362.78261   1319.72826  184.00000  19.66289             12.11353
363.84270   1398.06742  267.00000  19.20649             17.76137
361.31429   458.37143   105.00000  13.43985             10.05706
366.14552   765.42164   268.00000  21.29236             16.83781
365.36400   870.06400   250.00000  18.32415             17.49492
370.44156   728.95130   308.00000  23.09777             17.06551
370.87550   1333.92771  249.00000  23.05076             13.81205
370.17886   1027.15041  246.00000  18.93378             16.62560
370.19828   1097.42241  232.00000  19.23605             15.60749
370.77848   1422.82911  158.00000  14.98114             13.46855
372.34694   456.19728   147.00000  15.92710             11.79400
371.63889   679.61667   180.00000  16.08066             14.34486
375.73563   161.72414   174.00000  15.76523             14.12489
377.59898   487.12690   197.00000  19.19264             13.10247
376.72917   110.99306   144.00000  15.62608             11.74669
379.88755   812.86747   249.00000  22.69779             14.91468
382.51208   361.97101   207.00000  17.79095             14.86453
386.70098   1310.43137  204.00000  24.36561             10.72779
383.68724   422.25103   243.00000  18.93551             16.56688
385.99228   627.25869   259.00000  18.86822             17.77204
385.09694   1150.37755  196.00000  20.38778             12.69216
386.59565   1256.83913  230.00000  20.12899             14.60442
383.04255   1386.91489  94.00000   11.21727             10.66243
389.73418   702.52743   237.00000  23.42403             13.07408
385.85833   344.10833   120.00000  13.30960             11.50995
387.94340   1103.93711  159.00000  15.38814             13.14348
390.46707   1369.91018  167.00000  19.86683             10.80092
387.76404   1634.44944  89.00000   11.54068             9.86391
392.91188   393.40613   261.00000  22.29076             15.13889
391.14451   1194.41618  173.00000  17.47671             12.67432
388.84211   210.07895   76.00000   10.32638             9.39339
390.22152   1577.81646  158.00000  14.73422             13.80181
390.26168   138.50467   107.00000  13.21285             10.34668
393.31515   479.18182   165.00000  16.57484             12.70667
392.37379   306.85437   206.00000  19.76614             13.32952
392.61039   326.77922   154.00000  15.55894             12.59598
391.68919   452.54054   74.00000   10.62968             8.94004
396.52000   175.04000   150.00000  15.49200             12.56951
398.00575   589.98276   174.00000  16.48232             13.52585
400.52610   882.00402   249.00000  19.35841             16.61288
397.60000   148.08462   130.00000  13.56509             12.31472
402.67453   342.66509   212.00000  21.30745             12.77429
399.17323   377.96063   127.00000  14.11512             11.47707
399.27559   1290.11024  127.00000  13.69973             11.90027
402.13904   496.27807   187.00000  17.62119             13.54693
404.13605   186.56463   147.00000  14.23408             13.18810
408.15226   862.78601   243.00000  21.86165             14.20288
409.73251   1269.46091  243.00000  23.49171             13.30023
410.27937   913.46032   315.00000  26.68625             15.56733
418.72574   1247.25105  474.00000  44.09677             14.56765
410.12054   662.94643   224.00000  19.04260             15.11955
407.35593   676.24576   118.00000  13.60080             11.11227
412.94686   1202.97101  207.00000  20.11009             13.14097
410.71429   137.36264   91.00000   12.25374             9.66791
417.68205   1316.60513  195.00000  26.19195             9.62063
413.05208   1086.67708  192.00000  20.13556             12.30911
417.12077   575.20290   207.00000  18.66127             14.29047
415.27869   395.28415   183.00000  19.11235             12.58015
426.49817   771.69963   273.00000  28.60194             13.87180
418.11184   1124.55921  152.00000  14.86546             13.41342
419.57025   735.47107   121.00000  14.95531             10.62891
419.66250   1004.08750  160.00000  15.76891             13.09185
422.26455   1166.95238  189.00000  18.71074             12.88741
424.23776   708.61538   286.00000  22.69809             16.09459
419.89610   290.20130   154.00000  16.75196             11.79060
419.66667   1047.04762  63.00000   9.31802              8.65540
425.57635   1373.55665  203.00000  19.37649             13.45282
425.34911   174.37278   169.00000  15.30822             14.20953
427.85915   809.81690   213.00000  19.19403             14.14922
425.40157   331.65354   127.00000  14.82090             10.96154
429.20889   1557.99111  225.00000  19.33439             15.09988
428.58333   1155.52778  180.00000  16.95499             13.54024
427.32456   1497.36842  114.00000  13.93168             10.49387
432.49123   444.06433   171.00000  18.45973             12.42197
432.21983   414.74569   232.00000  18.87441             15.68275
433.38528   1127.18615  231.00000  18.32440             16.38885
431.83274   864.50890   281.00000  23.55226             15.24050
429.58889   1041.71111  90.00000   11.27786             10.16166
434.33108   736.87162   148.00000  20.76438             9.50170
432.07602   1009.32164  171.00000  17.41396             12.60606
435.18881   381.80420   143.00000  15.55398             11.77031
439.23853   655.63761   218.00000  20.17344             14.14222
434.57812   1299.54688  128.00000  13.88985             11.77664
438.27419   1616.14516  186.00000  18.01365             13.19460
438.98571   362.77143   140.00000  15.20743             11.72583
442.03636   1340.15455  220.00000  18.13946             15.60455
442.10377   595.12264   212.00000  19.99521             13.60097
440.33333   235.41667   96.00000   12.17044             10.06602
442.59494   304.33544   158.00000  15.36975             13.19967
446.98416   681.18552   442.00000  29.98526             19.27520
448.95219   562.55777   251.00000  20.47950             15.80327
447.24691   987.09259   162.00000  18.72058             11.31949
446.09467   1100.23669  169.00000  15.15390             14.29839
446.25424   1519.13559  177.00000  16.25773             13.93556
451.68601   1001.69283  293.00000  25.20634             15.39903
447.88462   1447.04487  156.00000  15.49057             12.80633
447.37241   956.20690   145.00000  19.05389             10.00710
452.05000   620.55000   240.00000  22.19145             13.94249
453.59155   1122.76526  213.00000  22.02095             12.41595
452.01887   173.19497   159.00000  15.65323             12.93614
451.44366   893.59155   142.00000  14.07374             12.92006
456.48661   1219.10268  224.00000  21.72668             13.13098
454.32515   323.51534   163.00000  18.15884             11.49965
452.12329   381.45890   146.00000  16.48626             11.38077
458.43807   790.20242   331.00000  24.59184             17.80998
455.32804   1038.30159  189.00000  17.81462             13.58072
453.95122   1585.96748  123.00000  13.52029             11.69985
461.49730   813.37838   185.00000  18.25713             13.86800
461.06704   903.87709   179.00000  16.03769             15.28276
458.42857   977.45865   133.00000  15.70850             10.88243
459.88372   954.56589   129.00000  18.48771             9.08339
464.11765   1603.26144  153.00000  15.66373             12.57965
464.64384   1654.50685  146.00000  15.61678             11.94753
471.78598   1287.50554  271.00000  23.60284             14.65480
470.44231   737.34615   156.00000  15.75849             12.74029
471.98718   1084.10897  156.00000  17.54958             11.36003
475.25328   675.27074   229.00000  21.44801             13.64435
472.25907   1033.83420  193.00000  17.30474             14.22710
472.59639   642.96386   166.00000  14.75846             14.32140
473.13575   1680.61991  221.00000  18.80953             14.97910
471.50485   1823.68932  103.00000  11.90334             11.22881
475.69811   575.59906   212.00000  18.81593             14.42895
477.07595   726.11709   316.00000  28.24016             14.49240
475.22321   1119.06696  224.00000  21.18821             13.48457
478.75573   328.87023   262.00000  20.30205             16.60059
478.28796   619.77487   191.00000  16.76546             14.54390
477.43558   849.27607   163.00000  20.56318             10.27201
479.17877   1227.89385  179.00000  17.31616             13.18438
477.63054   1327.76847  203.00000  18.76909             13.92414
480.60870   1163.16206  253.00000  19.72521             16.37163
481.52358   792.27358   212.00000  17.95849             15.08664
481.22959   1496.68878  196.00000  17.94714             13.91801
480.08772   1851.89474  114.00000  13.33189             11.21070
485.32394   757.60211   284.00000  25.50817             14.34170
481.62162   163.66216   148.00000  16.30355             11.61181
483.16854   1408.47191  178.00000  16.09744             14.08325
483.88387   186.39355   155.00000  14.84076             13.39137
484.07263   975.45251   179.00000  15.91196             14.36269
489.21756   884.40840   262.00000  20.41407             16.70923
485.67416   947.24719   267.00000  21.43612             15.87650
483.22857   635.37143   35.00000   7.21313              6.14227
489.28700   853.72646   223.00000  17.95385             16.06114
488.30131   1026.09607  229.00000  17.44479             16.72695
489.29891   652.56522   184.00000  17.34115             13.62718
488.94764   1363.16230  191.00000  18.25208             13.48446
490.69399   805.25137   183.00000  16.19846             14.61256
492.32258   1059.67281  217.00000  20.12795             13.86319
491.85577   1321.64423  208.00000  18.37799             14.42911
489.34028   1698.13889  144.00000  15.09893             12.16438
490.17333   824.44000   150.00000  14.26058             13.40215
494.18638   998.70609   279.00000  22.80716             15.63711
490.28571   1345.75940  133.00000  14.12627             12.08826
491.16571   606.21143   175.00000  18.11687             12.49440
492.03883   1097.57282  206.00000  18.14025             14.74004
493.05594   1395.81119  143.00000  16.72693             10.91522
493.43462   1486.24615  260.00000  25.67158             12.95412
497.21456   1111.91954  261.00000  20.32568             16.55004
497.44800   1291.68800  250.00000  21.06893             15.16534
496.29057   1439.65660  265.00000  20.98258             16.28506
492.67647   1014.97059  34.00000   6.92431              6.30690
498.68482   1255.38911  257.00000  21.88922             15.25994
497.02857   698.64286   70.00000   11.31868             7.84888
502.09317   158.32298   161.00000  16.53059             12.45563
502.67143   752.32857   210.00000  24.31781             11.12734
502.32353   252.48529   136.00000  14.41509             12.04637
509.59375   547.97569   288.00000  20.52610             18.79793
505.85065   1031.92208  154.00000  15.69915             12.57671
507.84120   325.00429   233.00000  21.21627             14.14360
507.53646   620.10417   192.00000  19.21546             12.84801
508.25000   1551.38793  232.00000  21.47936             13.78861
508.85475   113.65363   179.00000  15.94652             14.36278
512.70868   912.31933   357.00000  23.40962             19.46261
510.86408   1125.00485  206.00000  20.66763             12.81268
517.56657   883.65439   353.00000  33.02743             14.34263
513.00000   1358.69565  115.00000  14.61482             10.04441
513.43019   846.84528   265.00000  22.37360             15.29147
518.62057   990.73404   282.00000  23.34634             15.51922
515.40881   1049.14465  159.00000  15.26845             13.27565
517.58559   25.77477    222.00000  17.63940             16.05717
516.41808   247.56497   177.00000  16.76850             13.42561
520.23645   964.10837   203.00000  20.63865             12.58031
517.58421   278.71579   190.00000  18.33445             13.22518
517.72727   1023.36364  77.00000   10.46260             9.41164
522.46185   1082.18072  249.00000  23.76073             13.86242
522.39350   779.28881   277.00000  22.63035             15.64721
527.78400   1101.47600  250.00000  21.10544             15.12549
524.10526   951.23684   38.00000   8.08591              5.98824
529.38037   731.41718   326.00000  28.79732             15.16438
528.24444   175.13333   90.00000   11.78115             9.74609
531.97143   1019.69143  175.00000  17.01587             13.21939
532.98936   847.67553   188.00000  17.74651             13.54789
536.30275   1242.09174  218.00000  24.20415             11.60860
533.44560   215.92746   193.00000  16.49436             14.98571
533.18367   1557.96599  147.00000  14.28784             13.19374
535.37313   248.69403   134.00000  14.85065             11.55782
538.79725   703.54296   291.00000  23.91308             15.87407
534.11511   1572.86331  139.00000  13.77750             12.89026
533.84553   261.13008   123.00000  14.23589             11.05805
539.13420   893.25541   231.00000  19.07732             16.13863
537.78205   930.67308   156.00000  16.57424             12.13826
535.96528   951.33333   144.00000  14.72581             12.49524
537.55191   1278.59016  183.00000  16.56454             14.28898
537.95808   1124.07784  167.00000  16.43723             12.98055
540.16194   47.59109    247.00000  21.88717             14.46909
538.14474   1033.40132  152.00000  15.40395             12.61227
540.53266   786.82915   199.00000  17.90701             14.19323
540.93902   1518.19512  164.00000  15.84020             13.24184
539.13208   863.90566   53.00000   10.24244             6.61839
544.69014   1435.86972  284.00000  22.01799             16.63503
540.88095   201.95238   126.00000  15.05157             10.69549
549.45687   1008.77316  313.00000  28.00470             14.68462
547.61702   873.96596   235.00000  20.65349             14.55159
543.94545   1289.01818  110.00000  13.19771             10.62520
547.07432   243.47973   148.00000  15.62409             12.26325
549.25967   1047.08840  181.00000  18.91737             12.31273
546.57078   1384.98174  219.00000  20.40206             13.82537
547.04070   280.31395   172.00000  17.89622             12.24862
550.80603   556.50000   232.00000  22.19703             13.55449
550.32669   741.67331   251.00000  20.20209             16.02383
549.89806   1150.96602  206.00000  18.57727             14.20589
551.60345   1297.96983  232.00000  20.96233             14.54773
552.67521   679.14103   234.00000  24.39534             12.25331
556.38877   1600.25486  463.00000  28.87111             22.98303
551.02155   834.55603   232.00000  20.99321             14.16114
548.61290   932.80645   62.00000   10.28403             7.74700
552.32000   1399.47200  125.00000  12.86246             12.49552
558.90310   850.84496   258.00000  25.48873             13.12164
559.46494   810.70111   271.00000  19.21340             18.39564
558.34826   1179.67662  201.00000  19.18094             13.40008
559.18095   216.63810   105.00000  12.81299             10.47756
562.68932   128.35437   206.00000  17.60801             14.99633
564.64211   52.19474    190.00000  17.71357             13.69573
567.51394   701.07968   251.00000  22.68490             14.22471
564.51515   1318.14545  165.00000  15.95750             13.16645
565.58150   31.69604    227.00000  20.41168             14.35665
566.88372   1027.65581  215.00000  18.19971             15.23698
566.08974   1092.57692  156.00000  17.15399             11.76606
569.03731   96.63433    268.00000  22.79908             15.13950
567.20106   204.58201   189.00000  18.20731             13.27104
568.48901   311.43407   182.00000  17.19239             13.71606
571.98246   540.14737   285.00000  22.67681             16.44105
568.73457   1128.39506  162.00000  15.38910             13.43096
569.89844   152.20312   128.00000  16.28139             10.07304
569.33133   289.96988   166.00000  16.96044             12.47722
565.67742   962.09677   31.00000   6.40849              6.17646
574.93016   734.58730   315.00000  23.25707             17.37580
573.40271   760.07692   221.00000  19.69029             14.30790
567.92157   1105.62745  51.00000   9.69896              6.76230
570.03289   914.48684   152.00000  20.70038             9.65732
575.00000   941.17617   193.00000  19.00714             13.01788
575.16292   980.20787   178.00000  17.02517             13.41115
574.65359   1552.24183  153.00000  15.66330             12.48535
575.06087   1336.82609  115.00000  13.73337             10.65176
575.27273   801.83636   165.00000  18.14896             11.60367
578.82353   231.42941   170.00000  17.12605             12.66409
579.45643   184.29461   241.00000  20.79826             15.09984
579.76331   918.17160   169.00000  16.52399             13.47729
584.27600   1140.38000  250.00000  21.08848             15.37176
582.85000   1374.35833  240.00000  23.01075             13.91251
582.06475   1101.25180  139.00000  14.99592             11.95184
585.89565   1422.93478  230.00000  20.99886             14.16138
583.12270   1089.27607  163.00000  17.34018             12.13797
586.46818   895.59091   220.00000  20.28019             13.90036
581.89394   965.81061   132.00000  14.91094             11.28424
586.12871   529.28713   202.00000  18.13269             14.35331
587.83696   1338.59239  184.00000  18.52556             12.92379
588.19355   146.83871   186.00000  19.60908             12.22088
586.52688   214.34409   186.00000  17.74896             13.35107
591.07083   935.35417   240.00000  19.16725             16.00821
592.07944   1324.63084  214.00000  22.48917             12.50917
592.22632   1264.20526  190.00000  16.82440             14.45987
598.10727   748.79931   289.00000  24.36697             16.16086
592.42105   1473.89474  133.00000  14.67845             11.53464
594.22794   59.75735    136.00000  14.07303             12.58150
594.26066   1097.19905  211.00000  19.41863             14.05073
598.27320   766.68557   194.00000  17.49523             14.31626
594.25714   828.78571   70.00000   10.96478             8.26927
597.95513   689.51923   156.00000  14.39418             13.81750
598.44366   987.45775   142.00000  16.06925             11.27673
594.95312   995.93750   64.00000   10.41555             7.78901
604.01761   784.19366   284.00000  25.58419             14.37718
601.05797   1451.39130  207.00000  17.18927             15.45935
604.82540   1192.46032  252.00000  22.15503             14.54519
600.26190   187.58333   84.00000   10.96138             9.83538
604.99502   251.06468   201.00000  16.65476             15.59323
603.55063   289.13924   158.00000  14.61577             13.77772
604.48538   1625.99415  171.00000  16.13915             13.61771
605.15672   14.22388    134.00000  14.58915             11.83181
607.93103   966.32184   261.00000  21.10006             15.96393
614.90347   799.24324   259.00000  26.06215             13.42420
610.78689   133.34426   183.00000  18.13137             12.89542
611.82883   704.65766   222.00000  21.08060             13.78221
609.55128   194.62821   78.00000   11.58311             8.61056
616.08365   901.41825   263.00000  22.41145             15.06799
619.68406   815.20870   345.00000  31.14036             16.82772
617.83756   846.14721   197.00000  22.17514             11.34605
616.38532   174.01376   218.00000  21.28621             13.16394
613.94340   110.47170   106.00000  12.51768             10.78076
616.14815   1372.95679  162.00000  15.75590             13.10782
617.10145   1585.64734  207.00000  16.83197             15.77311
616.76667   1635.79167  120.00000  15.04465             10.31309
619.88258   1138.35606  264.00000  25.37879             13.55688
618.70940   244.12821   117.00000  13.48707             11.10044
619.37195   256.48171   164.00000  14.83479             14.09213
621.06452   642.92339   248.00000  21.06011             15.13770
623.58850   1105.97788  226.00000  24.36730             12.29341
625.66667   1674.37553  237.00000  24.46143             12.82670
620.63248   770.44444   117.00000  13.48282             11.29419
624.30290   541.71369   241.00000  20.65591             15.02742
623.36574   1093.82870  216.00000  18.27804             15.10114
625.92857   1766.20000  210.00000  18.55077             14.46127
622.55000   930.62500   40.00000   8.70407              5.79216
623.83019   720.56604   53.00000   8.95591              7.54959
632.09635   1287.60133  301.00000  23.93365             16.27373
630.19333   1486.44000  150.00000  15.79600             12.11131
630.65000   791.46875   160.00000  15.56365             13.12239
628.22222   982.46032   63.00000   9.81925              8.13996
630.47368   247.49474   95.00000   12.88533             9.40878
633.72105   164.81579   190.00000  17.33814             14.04058
633.98352   1137.70330  182.00000  17.99690             13.04160
636.81853   750.94595   259.00000  23.45901             14.64816
634.72189   1638.13018  169.00000  17.58082             12.56030
636.73797   916.18717   187.00000  17.64783             13.52703
638.13089   151.72775   191.00000  18.59516             13.14860
637.01681   560.04622   238.00000  21.74152             14.22770
637.82843   993.78431   204.00000  16.45573             15.89899
638.43678   1166.89655  261.00000  21.47771             15.91084
637.42708   1396.39062  192.00000  17.17395             14.26343
638.67725   829.08995   189.00000  16.22757             14.84780
635.63636   1095.48485  33.00000   6.86620              6.17493
641.65138   685.47706   218.00000  20.31011             13.69543
641.29032   975.12903   155.00000  15.09613             13.15963
645.68254   249.27513   189.00000  21.05715             11.45848
641.10185   796.30556   108.00000  16.76257             8.38126
640.24490   1120.71429  49.00000   9.80390              6.38120
643.52381   1223.63946  147.00000  15.19286             12.35252
643.64828   722.88276   145.00000  14.89627             12.40738
645.30909   740.53333   165.00000  17.97339             11.77126
645.70068   1595.42857  147.00000  14.63438             12.85053
646.73239   288.44366   142.00000  15.19554             11.97934
646.96795   1417.59615  156.00000  15.55226             12.97784
649.89615   804.51923   260.00000  19.88912             16.70923
653.18101   478.22849   337.00000  23.71199             18.49250
652.48707   1307.40517  232.00000  20.60360             14.64642
652.45977   1363.29502  261.00000  21.05855             15.83271
653.75243   981.39806   206.00000  17.79094             14.80638
653.95000   1749.45000  200.00000  20.31899             12.59281
653.03247   938.48052   154.00000  15.81590             12.42393
653.52326   1608.59302  258.00000  22.07188             15.06378
655.72770   508.79343   213.00000  19.14275             14.35909
654.65025   874.36946   203.00000  18.04111             14.40282
654.76301   1164.75145  173.00000  16.60412             13.31390
659.64982   843.63177   277.00000  29.04831             12.92267
660.88636   1213.65260  308.00000  25.76614             15.72307
659.06195   1110.50000  226.00000  18.47208             15.65995
663.57018   999.85088   228.00000  21.89317             13.33674
660.14706   25.54412    136.00000  13.86237             12.57163
661.12121   190.36364   99.00000   12.83979             9.82581
666.40408   722.21633   245.00000  19.71011             16.24667
664.03636   957.48636   220.00000  17.45991             16.41507
661.21622   914.54054   37.00000   7.61231              6.14972
666.03955   1071.94915  177.00000  17.15211             13.38769
668.00000   1249.05314  207.00000  20.40230             12.99612
670.47710   1300.14504  262.00000  24.36662             14.05657
667.14286   1055.05069  217.00000  21.70577             13.02581
668.55072   1175.68116  207.00000  16.45776             16.01919
669.62326   1626.09302  215.00000  19.32863             14.33792
665.16667   899.80000   30.00000   7.00421              5.41509
670.42986   1091.80543  221.00000  19.01378             14.84337
674.93031   476.52265   287.00000  24.83882             15.48539
670.93651   185.40476   126.00000  14.00571             11.71670
673.35039   1149.75197  254.00000  19.78979             16.43114
673.13942   1585.28846  208.00000  19.05475             13.93271
671.98276   47.30172    116.00000  14.42949             10.57571
675.56296   419.14815   270.00000  21.68157             16.06603
676.37245   1444.81122  196.00000  21.45826             11.79149
674.40164   886.33607   122.00000  14.11368             11.30021
677.80935   1116.24460  278.00000  21.54059             16.74234
677.33831   1486.27861  201.00000  17.64307             14.56490
678.77253   733.36910   233.00000  25.68714             11.79639
680.49789   1072.97890  237.00000  19.22028             15.73219
682.00000   900.36697   218.00000  18.69922             15.19178
681.01408   914.68310   142.00000  15.69875             11.76034
682.39781   1020.29927  274.00000  19.41130             18.02905
682.65888   964.11682   214.00000  16.74930             16.35121
678.00000   756.42308   26.00000   6.51561              5.16555
684.69347   856.75377   199.00000  17.17571             14.97767
684.85443   542.72152   158.00000  14.95544             13.62316
688.68248   673.27007   274.00000  24.20624             14.43259
690.23162   987.16544   272.00000  22.27534             15.84617
686.93878   1101.48980  147.00000  17.12040             11.01269
685.61538   1434.02098  143.00000  15.83523             11.57603
688.67708   1198.98438  192.00000  18.00342             13.67922
686.51389   464.09722   144.00000  15.52812             11.86268
684.50000   1037.00000  28.00000   6.70777              5.25141
690.32057   1396.04306  209.00000  18.05932             14.83289
686.60000   737.44000   75.00000   11.46601             8.51938
690.37156   1543.88991  218.00000  18.47016             15.25355
689.96203   246.15823   158.00000  15.16063             13.25543
692.55063   1729.06962  158.00000  17.12429             11.88796
695.64545   264.84091   220.00000  17.87334             16.02556
694.85441   1215.97318  261.00000  23.22740             14.48474
697.39070   190.15349   215.00000  17.83130             15.62013
695.72185   222.07285   151.00000  14.80518             13.07696
694.94382   538.30337   89.00000   12.70070             9.01687
696.63158   850.31579   133.00000  14.62694             11.65544
699.00420   370.29412   238.00000  27.05475             11.70653
697.66296   699.45926   270.00000  23.00863             15.23312
701.24206   888.67857   252.00000  21.53346             15.24838
698.68912   962.34715   193.00000  17.70320             14.07209
700.11628   1339.30565  301.00000  27.82164             14.03388
698.39227   1439.60773  181.00000  22.04463             10.64883
703.34483   943.21121   232.00000  24.07146             12.37700
699.45116   1094.16744  215.00000  19.31615             14.46470
700.93925   322.75701   214.00000  19.23360             14.25467
700.72067   1781.71508  179.00000  18.67950             12.27222
702.44954   614.89908   109.00000  13.35071             11.27857
704.65763   1251.60339  295.00000  26.16125             15.30027
703.32394   71.72535    142.00000  15.22063             11.94040
706.39801   517.29353   201.00000  18.01677             14.29192
706.18408   1064.31841  201.00000  18.26457             14.13237
706.44898   1131.25510  294.00000  22.43179             16.83627
706.44094   1380.12205  254.00000  19.67920             16.55705
707.90698   447.73256   172.00000  17.36962             12.66710
708.70192   1848.31250  208.00000  17.61278             15.29575
710.03828   177.98086   209.00000  18.63398             14.36633
708.83983   819.60173   231.00000  19.49840             15.16312
707.52381   773.11905   126.00000  12.92211             12.61728
710.28205   341.05641   195.00000  17.99118             13.83563
713.36187   1048.87549  257.00000  21.72315             15.33957
713.61798   1658.81648  267.00000  23.81633             14.55167
713.51327   541.32743   226.00000  19.82826             14.62898
711.81707   1202.23780  164.00000  15.90927             13.19983
712.32450   216.49007   151.00000  15.51171             12.40401
716.59551   781.43820   178.00000  20.72799             11.15708
714.12971   1160.39331  239.00000  18.38020             17.38301
714.65068   1009.52740  146.00000  14.44168             12.95914
720.33438   1507.30938  320.00000  23.49870             17.49830
720.78610   1453.76471  187.00000  19.41755             12.76500
715.53704   559.07407   54.00000   8.78862              7.89646
720.23500   231.28000   200.00000  18.69817             13.90829
721.90943   105.67547   265.00000  22.19257             15.49139
723.82155   733.55556   297.00000  29.75809             12.87070
723.42612   1586.94845  291.00000  27.68235             13.55570
721.66434   865.79720   143.00000  15.10781             12.10240
724.24893   1759.53219  233.00000  17.94996             16.58485
723.28723   76.80851    188.00000  19.10290             12.58765
725.40693   1711.23810  231.00000  20.97941             14.15119
724.64375   1015.65000  160.00000  15.49177             13.68629
726.30693   1139.01485  202.00000  19.34042             13.33653
725.54167   1120.93750  192.00000  17.99483             13.81771
728.93607   914.71689   219.00000  19.33472             14.47211
726.14679   146.80734   109.00000  13.19494             10.52393
730.44082   989.01224   245.00000  18.98182             16.53813
725.81818   549.09091   22.00000   5.93792              4.71824
727.61538   559.66667   39.00000   8.26054              5.99387
731.03750   672.08750   160.00000  15.29642             13.36692
731.00552   1103.27072  181.00000  16.00469             14.48347
734.00699   160.40559   143.00000  17.83836             10.51136
738.52901   1187.16724  293.00000  24.58976             15.33256
739.52075   1057.93962  265.00000  20.84527             16.43621
745.09268   129.29268   205.00000  21.34550             13.24563
740.32168   454.69930   143.00000  15.35285             11.94212
741.07407   574.16049   162.00000  19.61952             10.59032
743.81188   175.64356   202.00000  16.56493             15.62158
742.04508   227.89754   244.00000  22.56078             13.89154
744.63580   1132.91358  162.00000  18.75764             10.99419
746.24757   1144.42718  206.00000  22.61732             11.87856
744.40171   844.82906   117.00000  15.02377             10.07439
747.52344   806.35156   256.00000  24.41936             13.75076
746.37324   903.27465   142.00000  14.32533             13.04476
746.30818   1098.25786  159.00000  15.80956             12.84852
748.43636   420.93939   165.00000  15.52766             13.72826
747.85577   1050.20192  104.00000  15.76193             8.63576
749.41475   206.06912   217.00000  17.75508             15.65799
750.82787   640.87705   244.00000  18.49422             16.85235
750.26840   976.01732   231.00000  18.74201             15.80823
750.41935   1011.20072  279.00000  21.65156             16.75660
749.20000   445.59444   180.00000  17.19682             13.35740
751.97166   1691.26316  247.00000  19.19692             16.42678
746.70968   606.45161   31.00000   6.85750              5.70016
750.75833   916.42500   120.00000  14.06507             10.90333
754.64912   854.23977   171.00000  16.92058             13.10763
753.75839   1853.59732  149.00000  14.48313             13.26950
759.23129   1235.34354  294.00000  23.18606             16.28036
758.49268   1486.92683  205.00000  17.68390             14.83151
757.23256   1560.53953  215.00000  22.45762             12.44344
759.36058   1633.32212  208.00000  19.48591             13.63612
757.53416   1126.99379  161.00000  15.35467             13.42904
758.88679   18.35220    159.00000  16.49713             12.42313
765.12774   308.60219   274.00000  29.32667             12.39201
757.74576   941.58475   118.00000  12.67754             12.11087
761.14602   61.45575    226.00000  18.18236             15.86791
758.90000   632.42222   90.00000   14.64283             8.32650
762.04202   953.54202   238.00000  18.36270             17.21633
762.41343   1182.66431  283.00000  24.19733             15.04859
762.82996   1036.39676  247.00000  22.28445             14.32478
765.17121   1145.98833  257.00000  19.82605             16.60286
767.18577   405.05138   253.00000  28.16492             11.96340
764.74251   1526.02994  167.00000  16.16645             13.15006
765.34177   901.72574   237.00000  25.84302             11.88918
766.69925   488.66165   133.00000  14.44394             11.70838
768.89610   158.17749   231.00000  22.90663             12.96728
770.07947   930.13907   151.00000  17.22824             11.32288
768.61165   804.84951   206.00000  20.51328             12.85478
776.11250   978.10833   240.00000  25.10778             12.42345
769.44737   992.53947   76.00000   12.77115             7.63558
772.95364   170.37086   151.00000  15.28974             12.92934
772.67677   921.46465   99.00000   13.40608             9.96354
774.64130   1262.51630  184.00000  17.57892             13.35978
776.84918   1107.38033  305.00000  21.28180             18.40777
776.28777   576.20144   139.00000  15.94885             11.20660
776.91753   1378.98969  194.00000  17.18395             14.38869
777.60406   1494.46193  197.00000  16.97703             14.92146
780.68103   295.00000   232.00000  21.89741             13.62477
779.32394   1016.88732  284.00000  24.23364             15.12494
779.21348   1068.70225  178.00000  19.53624             11.69302
783.32035   560.90909   231.00000  22.59968             13.08910
784.73946   621.21839   261.00000  22.91573             15.04148
783.03943   808.09319   279.00000  29.95234             11.95984
781.43949   1446.16879  314.00000  29.57467             14.01397
782.30583   541.50485   206.00000  20.74542             13.00689
788.31757   662.80068   296.00000  21.71403             17.46449
785.81095   927.85572   201.00000  18.81140             13.72989
786.28058   514.56835   139.00000  16.38059             10.85203
787.45755   1409.41038  212.00000  20.84338             13.17372
788.97354   1479.46032  189.00000  16.24266             14.94795
789.49393   1611.55061  247.00000  19.55126             16.16483
788.88966   581.08276   145.00000  14.29677             12.99713
791.46739   965.39674   184.00000  16.85944             14.03435
791.58015   1712.85878  262.00000  20.20015             16.65058
791.45580   1358.63260  362.00000  30.53566             15.20654
794.83951   200.44444   243.00000  20.57110             15.21499
795.96657   230.40729   329.00000  24.64337             17.51288
794.25134   113.32086   187.00000  17.49504             13.66574
796.72468   997.66456   316.00000  22.21397             18.78276
792.65341   1318.36932  176.00000  15.48882             14.58490
793.19205   831.86755   302.00000  29.33948             13.19013
796.68444   1213.10667  225.00000  17.42388             16.52210
797.49457   1245.84239  184.00000  16.30498             14.38937
798.80100   1118.38806  201.00000  17.26735             14.84948
800.18631   1141.55133  263.00000  20.60413             16.50665
802.44488   606.82283   254.00000  23.32585             14.82761
801.47253   789.99634   273.00000  20.20856             17.34452
799.71636   1045.71273  275.00000  22.42952             16.04980
798.06667   587.25333   75.00000   10.98498             8.94682
803.40191   1014.49761  209.00000  19.58337             13.90854
799.39024   1636.15041  246.00000  24.66474             12.81920
804.44485   648.10662   272.00000  29.05291             12.21826
801.43462   911.00769   260.00000  27.34581             12.30443
805.59184   1257.41837  196.00000  17.94423             13.96964
803.00935   972.02804   107.00000  13.29529             10.25865
804.39423   1025.08654  104.00000  14.31578             9.35568
809.82301   861.14602   226.00000  26.77491             10.96720
808.96970   1160.53535  198.00000  16.53829             15.28800
811.88701   1274.12429  177.00000  17.35618             13.03822
811.18584   593.31858   113.00000  14.49807             9.93524
816.20225   1190.85674  356.00000  25.92511             17.82897
816.02105   1094.72105  190.00000  16.35777             14.84419
818.40645   1817.47097  155.00000  17.56199             11.43243
820.68857   1056.84000  350.00000  30.48343             15.54346
814.50000   1450.50000  32.00000   6.32456              6.32456
820.61069   1672.81679  262.00000  20.18876             16.68986
822.34228   938.22148   149.00000  15.24286             12.51908
824.56849   959.96575   292.00000  28.61316             13.47912
816.90909   1440.68182  22.00000   5.49380              5.19377
822.76536   708.63687   179.00000  15.63086             14.60441
824.81752   1112.16058  137.00000  17.41210             10.03886
824.39286   1800.26786  168.00000  15.92630             13.45795
827.78049   994.20906   287.00000  25.40346             14.50299
827.15556   1156.70370  135.00000  14.39688             12.27362
833.05752   930.22566   226.00000  19.55259             15.69104
831.84653   1297.26238  202.00000  18.01363             14.29710
830.26241   322.21277   141.00000  15.56072             11.58665
833.03413   693.59727   293.00000  22.23748             16.99710
831.81250   724.87500   144.00000  17.09297             10.92480
836.69643   1564.81696  448.00000  25.83979             22.68279
831.45520   1086.32616  279.00000  30.22709             11.87815
835.66471   811.77059   170.00000  15.25231             14.25224
836.29208   657.09901   202.00000  21.10594             12.59215
836.89116   900.46259   147.00000  15.37296             12.20032
838.46552   257.25862   232.00000  20.36264             14.62159
841.47508   1643.42525  301.00000  25.08901             15.36781
837.15873   1158.07937  126.00000  14.77467             11.09263
839.19481   220.59091   154.00000  15.34054             12.84599
836.90698   1383.72093  43.00000   8.25969              6.59616
836.90566   1395.30189  53.00000   9.36369              7.19041
848.16429   178.77857   280.00000  22.69229             16.02367
845.57527   143.89247   186.00000  16.69534             14.21497
846.50174   755.09059   287.00000  20.19687             18.28378
848.00389   1073.15564  257.00000  22.50386             14.95901
846.37143   1336.98413  315.00000  27.58253             14.65505
848.23037   885.62827   191.00000  18.54337             13.37556
846.46281   1144.51240  242.00000  27.84588             11.40337
848.68023   611.84302   172.00000  16.14884             13.60826
850.10526   1024.38596  228.00000  20.61812             14.61010
852.50211   1214.16878  237.00000  20.61248             15.13048
851.89823   695.03540   226.00000  18.08131             15.96553
852.07950   787.77824   239.00000  18.73761             16.27423
851.28125   1482.55208  192.00000  17.60830             13.96921
850.68889   222.90370   135.00000  14.08389             12.29298
853.26667   1050.50476  105.00000  14.58310             9.24713
860.11549   911.32021   381.00000  25.49108             21.06718
855.91509   1116.50943  212.00000  20.20905             13.40255
854.78378   1228.78919  185.00000  16.15717             15.04642
855.88450   1271.96657  329.00000  24.41883             17.36887
854.85955   1100.60112  178.00000  17.19962             13.24309
858.13089   99.00524    191.00000  18.22554             13.48706
855.01562   850.64062   64.00000   9.40065              8.66358
859.42009   1061.57534  219.00000  17.73808             15.92272
858.69732   1146.38314  261.00000  23.84960             14.03263
859.55022   1432.31004  229.00000  20.44190             14.43159
861.25843   1590.64794  267.00000  22.76439             15.30773
864.11161   85.01786    224.00000  18.10615             15.93398
861.77778   505.83333   90.00000   13.66769             8.52993
862.97826   1012.92391  184.00000  18.86290             12.49363
864.07884   1458.93361  241.00000  21.61104             14.41920
863.62037   1745.50463  216.00000  19.77163             13.99863
867.11790   161.20961   229.00000  22.11241             13.35190
866.86131   1234.35036  274.00000  23.73285             14.91871
867.49673   1381.43791  306.00000  23.34076             16.90061
869.98361   1606.53689  244.00000  22.42417             13.99822
869.53333   108.57333   150.00000  15.46480             12.42751
874.61000   667.42500   200.00000  20.24566             12.97651
874.41014   1661.30415  217.00000  21.11983             13.19379
876.62857   189.38571   280.00000  21.02218             17.18123
876.57333   496.77333   150.00000  15.96277             11.99175
880.59375   985.64236   288.00000  24.25950             15.50307
879.45946   1099.29730  259.00000  21.40007             15.63909
876.31757   546.29054   148.00000  15.69069             12.27281
877.93333   817.60833   240.00000  19.09138             16.27044
879.31016   843.33690   187.00000  19.27893             12.69574
875.76471   458.71569   102.00000  14.85439             8.82462
880.68710   906.69355   310.00000  25.89112             15.38244
878.36813   1023.35165  182.00000  16.00395             14.59306
877.33526   1547.79191  173.00000  19.05166             11.64602
881.22508   1169.36656  311.00000  25.19671             15.91633
876.71212   777.77273   66.00000   10.89395             7.71577
883.42920   1085.40708  226.00000  22.10732             13.37427
882.97807   232.53070   228.00000  21.09364             14.01567
880.74093   1051.54922  193.00000  17.48994             14.11407
882.82182   1311.42909  275.00000  21.04661             16.82295
880.40336   511.52101   119.00000  21.00938             7.89398
883.01504   740.98496   133.00000  18.91673             9.05372
883.91241   1473.94161  274.00000  21.18475             17.17811
884.45977   1729.62069  261.00000  22.22789             15.04549
879.48077   788.65385   52.00000   8.66701              7.65847
881.04054   639.91892   74.00000   11.55500             8.30331
891.01688   972.74262   237.00000  22.45595             13.65948
888.30806   1033.92417  211.00000  17.30973             15.81992
887.91824   590.28931   159.00000  16.67940             12.16240
888.94064   1244.31963  219.00000  22.02311             12.69862
890.81481   37.83333    216.00000  21.41272             12.96942
890.20657   678.70423   213.00000  18.50127             14.87209
896.53795   262.55446   303.00000  25.40408             15.42622
888.94783   517.68696   115.00000  15.37426             9.53545
891.67832   531.43357   143.00000  14.25510             12.86031
893.22872   1157.42021  188.00000  17.87740             13.43115
895.77143   640.08095   210.00000  17.43197             15.42864
894.03419   942.49573   234.00000  24.41095             12.35727
896.43038   1390.17405  316.00000  23.17582             18.13983
899.55405   662.21622   296.00000  25.11610             15.29379
897.48511   789.83404   235.00000  20.61585             14.66992
897.12987   601.79870   154.00000  17.98159             11.04436
898.76984   1323.96429  252.00000  21.12162             15.35380
897.51205   197.58434   166.00000  15.45995             13.66753
900.18135   819.65285   193.00000  19.89321             12.43355
897.39512   1212.52683  205.00000  19.40207             13.49964
897.30263   745.34211   152.00000  17.24668             11.26024
895.41379   839.55172   29.00000   6.58715              5.53666
898.42857   772.20635   63.00000   9.66152              8.46581
900.75000   485.67361   144.00000  16.85219             11.06894
900.72308   687.26154   65.00000   12.16826             6.98216
907.02762   1508.44199  181.00000  16.22881             14.27770
907.91176   118.92941   170.00000  15.98866             13.69477
907.46099   1160.00709  141.00000  14.59002             12.41423
908.72000   497.16800   125.00000  13.78888             11.60003
911.59239   718.25000   184.00000  16.25907             14.55072
912.02358   736.84434   212.00000  20.44155             13.38018
910.94248   457.94248   226.00000  23.91518             12.18125
915.09091   855.10101   297.00000  20.46076             18.71632
909.29412   755.64706   34.00000   7.51817              5.76858
911.78440   1559.13761  218.00000  23.97950             11.95140
917.47755   1138.97143  245.00000  18.17910             17.55590
916.06566   619.82828   198.00000  19.06631             13.33242
921.00339   876.22034   295.00000  25.39668             14.86416
915.79621   1176.59716  211.00000  19.32029             14.11785
913.23913   785.02174   46.00000   8.85918              6.61233
917.86047   1540.67442  172.00000  17.12971             12.81017
917.94737   488.75439   171.00000  17.28292             12.67816
919.89516   702.34274   248.00000  19.71594             16.21630
920.30769   1589.66154  260.00000  19.76008             17.05847
916.87671   1063.49315  73.00000   13.26176             7.03356
921.91456   1085.33861  316.00000  28.53573             14.14799
921.41573   128.21348   178.00000  16.55776             13.80800
922.30909   910.00909   220.00000  18.76477             15.33946
922.71212   925.95455   198.00000  16.69344             15.15610
925.12227   169.90830   229.00000  22.08781             13.32429
922.26012   721.82081   173.00000  22.38968             10.87376
924.01026   983.07692   195.00000  16.04859             15.57604
922.12069   25.24138    116.00000  12.95107             11.49217
923.42424   150.02273   132.00000  13.37145             12.65921
926.37788   548.12903   217.00000  18.59476             14.98623
925.86082   1690.56701  194.00000  17.43393             14.17293
926.08475   99.48588    177.00000  18.13279             12.60120
923.69281   581.27451   153.00000  15.65383             12.52371
927.88673   1206.62136  309.00000  23.37602             17.43507
924.45641   1558.31282  195.00000  18.64815             13.39897
926.77114   511.16915   201.00000  21.89609             11.89933
928.83410   1226.12442  217.00000  19.29274             14.47979
931.28520   1000.92419  277.00000  24.65101             14.53104
928.48252   1031.20979  143.00000  15.19799             12.14845
931.44479   1519.63407  317.00000  24.91870             16.29915
933.58362   825.47440   293.00000  20.30069             19.08679
936.22124   144.15487   226.00000  18.30266             15.84174
933.98286   1245.30286  175.00000  15.94838             14.00061
939.11297   590.15063   239.00000  25.18214             12.40342
931.72131   856.32787   61.00000   9.44583              8.25081
936.35316   1303.75093  269.00000  21.09229             16.69162
938.12077   603.65217   207.00000  19.91829             13.33952
938.20382   1841.72611  157.00000  18.59439             10.79757
934.50000   696.80435   46.00000   8.06439              7.26552
939.05988   1327.37725  167.00000  17.68611             12.61803
938.05036   64.98561    139.00000  15.94711             11.12543
944.64724   245.13190   326.00000  27.95764             15.12655
938.31852   578.30370   135.00000  14.96772             11.64195
938.99293   1115.71378  283.00000  28.66379             12.80354
941.09804   1384.83987  306.00000  21.38727             18.44141
940.81818   1024.90303  165.00000  16.02286             13.23886
940.10582   1821.47090  189.00000  17.35413             13.88525
942.75738   1179.26557  305.00000  23.48964             17.12067
943.55482   1454.23256  301.00000  24.32855             16.72026
941.57078   411.10502   219.00000  22.31713             12.53049
943.48571   992.25714   175.00000  17.28083             12.95940
944.93333   647.10000   420.00000  26.59256             20.19039
942.20000   1046.83846  130.00000  13.55348             12.25307
945.28638   471.50235   213.00000  18.26121             14.99029
948.98929   1221.21071  280.00000  22.93448             15.98696
943.96939   436.87755   98.00000   12.51368             9.94935
947.96154   1478.63675  234.00000  18.37184             16.59262
946.95213   1519.67553  188.00000  18.40754             13.10655
949.86780   805.79661   295.00000  22.16912             17.20255
947.54237   1335.32203  118.00000  14.57809             10.56832
947.19444   390.19444   180.00000  16.78024             13.69721
948.76763   897.84647   241.00000  24.26157             13.03722
949.68333   881.52917   240.00000  21.76798             14.26897
951.28364   714.59273   275.00000  25.69489             13.76922
953.62371   976.27320   194.00000  26.85019             9.38847
950.88835   927.16019   206.00000  19.06520             13.96895
951.26471   426.27451   102.00000  12.32115             10.54122
952.77640   88.75776    161.00000  15.78426             13.03794
955.25940   1611.03008  266.00000  20.20577             16.81267
957.16732   1138.79767  257.00000  20.01768             16.45069
952.72881   135.96610   59.00000   9.49782              7.87959
956.14205   775.10227   176.00000  19.20569             11.89409
957.52941   517.58088   272.00000  30.98510             12.13813
960.17808   756.04110   219.00000  19.79101             14.19373
962.66154   21.23462    260.00000  22.27639             14.97289
961.44828   1663.25000  232.00000  21.14744             14.18663
961.97409   1818.08290  193.00000  17.60055             14.03720
966.09244   149.25630   238.00000  19.35113             15.78671
963.69231   123.02885   104.00000  12.23166             10.88810
966.03049   771.32927   164.00000  18.27983             11.91026
969.45912   1106.84906  159.00000  17.19957             11.82726
969.99190   1210.19028  247.00000  20.40170             15.56181
973.07143   875.02976   168.00000  19.21613             11.22398
975.31102   887.79528   254.00000  23.52238             14.18019
973.47429   589.48571   175.00000  16.55984             13.48854
977.84170   972.71042   259.00000  24.94735             13.35045
970.79167   131.41667   72.00000   10.90774             8.37948
972.76250   420.30625   160.00000  17.24943             11.93122
977.06761   530.66479   355.00000  31.39239             15.17017
973.22439   816.13171   205.00000  19.33469             13.51254
977.08077   917.51923   260.00000  21.55517             16.86516
974.40123   955.83951   162.00000  17.11534             12.63653
979.30035   1027.38869  283.00000  23.19010             15.73045
983.79693   654.21073   261.00000  30.52299             11.20498
978.92788   856.08173   208.00000  19.94858             13.55965
978.73529   947.15441   136.00000  19.97671             9.12747
981.49558   1784.36726  226.00000  17.68886             16.38337
981.81646   936.15823   158.00000  15.32791             13.27658
984.23457   443.06584   243.00000  24.64140             12.68224
983.40237   1555.07692  169.00000  15.18321             14.20615
986.90805   286.89425   435.00000  29.02344             19.23578
992.36527   677.95210   334.00000  28.04993             16.17012
986.76415   742.68396   212.00000  19.03028             14.34751
981.69231   1806.43077  65.00000   10.48010             7.86956
987.35168   395.62385   327.00000  30.51349             15.02615
988.15289   868.63636   242.00000  19.44050             16.06414
992.76771   1185.21530  353.00000  34.60644             14.06488
984.34375   959.45312   64.00000   11.79747             6.95658
995.46758   1482.54608  293.00000  32.10763             12.30159
994.00803   1369.59438  249.00000  21.05762             15.57516
993.53191   118.40426   141.00000  15.26265             12.01515
994.98758   367.42857   161.00000  17.91407             11.49759
997.23707   631.76724   232.00000  19.73617             15.12569
999.14232   1439.11985  267.00000  26.25688             13.37670
998.57391   160.92174   230.00000  22.10770             13.32157
998.32673   796.20792   202.00000  21.59573             12.18247
996.91693   1579.33866  313.00000  28.02346             14.60576
996.70968   886.94194   155.00000  14.35386             13.78345
999.80498   1636.39419  241.00000  19.73745             15.81119
998.30921   346.13816   152.00000  17.10627             11.36307
1004.61687  136.08963   569.00000  32.91757             22.18857
1005.71841  808.22022   277.00000  24.37092             14.78996
1001.12426  1525.02959  169.00000  15.96415             13.50817
1005.14552  662.70896   268.00000  26.78569             12.91291
1006.44198  1005.48395  405.00000  30.38047             17.47551
1006.41176  336.54622   238.00000  19.74653             15.42779
1010.32154  410.49839   311.00000  22.09812             18.18199
1008.70040  1566.85020  247.00000  24.60542             12.86495
1007.74409  1605.09055  254.00000  24.24647             13.46563
1006.94898  356.67347   98.00000   11.53381             10.86838
1010.60976  1746.32683  205.00000  17.36393             15.17080
1012.63580  1128.37037  162.00000  15.43294             13.46513
1018.45307  776.94175   309.00000  23.31578             17.18094
1015.33548  878.25161   155.00000  16.30033             12.11457
1019.68354  1433.81013  237.00000  19.35780             15.62237
1017.92810  175.71242   153.00000  14.82974             13.63793
1023.58621  1182.32020  203.00000  24.76244             10.67470
1024.11667  1392.41389  360.00000  22.60530             20.85819
1022.30769  1493.41420  169.00000  15.08203             14.28163
1023.38636  1603.41364  220.00000  20.40636             13.74508
1023.58964  331.23904   251.00000  22.98624             13.99290
1025.95217  204.89348   460.00000  34.94051             17.00088
1026.49780  309.22026   227.00000  19.70555             15.16454
1024.23153  1630.48276  203.00000  19.70794             13.24850
1027.21898  1727.48905  274.00000  21.72840             16.25027
1029.22276  260.16707   413.00000  24.87995             21.21605
1029.62598  284.98819   254.00000  21.64884             15.09291
1028.02303  647.98026   304.00000  23.50682             16.59087
1031.81518  705.63696   303.00000  29.95894             13.10550
1027.74317  1132.68306  183.00000  16.32946             14.36061
1025.89655  516.00000   29.00000   7.48239              4.88289
1033.09312  1459.91903  247.00000  22.05072             14.30042
1037.70863  1356.96763  278.00000  22.18255             16.10125
1038.44876  802.56890   283.00000  21.70407             16.67045
1040.97569  1152.75694  288.00000  26.04719             14.18059
1034.32500  1644.70000  40.00000   8.31568              6.14161
1041.22917  62.43750    192.00000  17.57245             14.02283
1041.34302  1653.47674  172.00000  17.34651             12.71139
1042.64336  342.11538   286.00000  22.72443             16.91802
1041.66923  1108.56923  130.00000  13.71342             12.12592
1044.96429  184.13776   196.00000  20.74640             12.08632
1047.61607  1891.17262  336.00000  21.50719             20.16328
1051.18288  397.62646   257.00000  22.52940             14.73531
1049.61929  39.96447    197.00000  17.43751             14.48508
1047.92437  863.86555   238.00000  24.81575             12.32608
1048.51765  1339.15882  170.00000  15.43824             14.10817
1048.88889  954.40741   135.00000  17.60443             9.84026
1052.31349  987.59921   252.00000  20.73302             15.64789
1053.92241  1123.42241  232.00000  17.51922             17.04926
1052.53614  928.26506   166.00000  17.50008             12.27887
1052.73729  1104.08475  118.00000  13.65216             11.05576
1052.17419  1455.61935  155.00000  16.35118             12.11888
1054.31034  1675.84291  261.00000  33.04089             11.55513
1056.29018  310.22768   224.00000  18.52065             15.47192
1053.14423  816.28846   104.00000  14.33211             9.40558
1050.26667  1624.84444  45.00000   8.72137              6.60736
1056.53488  73.44186    172.00000  15.40923             14.48233
1058.02110  1388.35021  237.00000  19.18314             16.16358
1056.66935  1136.73387  124.00000  15.27273             10.39805
1058.88929  1406.26071  280.00000  27.67499             13.95953
1061.84956  825.22566   226.00000  23.07364             12.88843
1061.84921  890.84127   252.00000  18.92667             17.29294
1063.78818  862.19704   203.00000  20.53805             12.65620
1062.24342  262.12171   304.00000  28.72756             13.61173
1059.06154  1701.26154  65.00000   9.75598              8.50184
1060.59917  222.73140   242.00000  29.85181             10.43614
1062.64596  933.76398   161.00000  16.98726             12.38771
1065.06818  650.03977   176.00000  15.98879             14.03842
1066.29333  1420.36667  150.00000  18.66531             10.41913
1069.56270  712.68489   311.00000  31.13949             14.02933
1068.46667  1850.80000  195.00000  17.64823             14.19517
1072.74890  810.20705   227.00000  24.18146             12.09045
1071.82692  386.94712   208.00000  17.36321             15.30443
1077.07797  1183.00678  295.00000  25.49508             15.04043
1073.78341  731.53917   217.00000  19.35354             14.50828
1074.80669  134.55390   269.00000  23.88325             14.55236
1069.51786  794.55357   56.00000   9.54358              7.50318
1071.90411  1076.00000  146.00000  16.51678             11.33945
1073.64017  1699.90795  239.00000  22.72500             13.48651
1074.33690  1866.30481  187.00000  18.20139             13.12528
1076.65126  1432.93697  238.00000  18.31986             16.65023
1083.14747  1353.49309  217.00000  19.90598             13.93442
1084.00990  1296.26238  202.00000  17.82341             14.49463
1084.24590  6.51913     183.00000  16.74637             14.05088
1087.63259  370.20767   313.00000  21.61964             18.62845
1087.45455  609.41176   187.00000  17.08590             13.96635
1087.44444  726.65359   153.00000  18.99042             10.43792
1085.03750  1840.03750  80.00000   10.96000             9.30770
1094.79612  1451.52427  309.00000  23.51294             17.37185
1088.06250  566.87500   32.00000   7.63836              5.41691
1088.45652  1721.76087  46.00000   8.25395              7.07513
1092.01911  1047.37580  157.00000  15.75757             12.74270
1090.98387  1700.18548  124.00000  16.06724             9.87659
1095.07792  107.81385   231.00000  18.68819             15.93345
1096.44221  584.94975   199.00000  16.64036             15.27140
1098.60324  1026.92713  247.00000  22.79978             14.03968
1094.36842  85.74561    114.00000  15.47307             9.40557
1097.64898  769.85714   245.00000  24.07427             13.00836
1099.77108  889.77711   166.00000  15.53405             13.76041
1101.69355  159.66935   248.00000  19.31188             16.40002
1103.14516  876.11290   186.00000  16.17023             14.79915
1103.95928  953.26697   221.00000  23.12125             12.33567
1104.79310  1810.68276  145.00000  15.74182             11.91912
1105.55080  1172.10695  187.00000  16.73513             14.36834
1106.11399  1709.34715  193.00000  16.74779             14.84941
1110.30172  623.90086   232.00000  18.09390             16.39692
1115.21914  345.46605   324.00000  27.26002             15.23498
1110.25610  1035.96341  164.00000  16.00914             13.33261
1111.80804  1822.76339  224.00000  25.26053             11.82576
1113.61579  109.31053   190.00000  17.19807             14.18470
1114.83465  1142.40945  127.00000  14.55895             11.13287
1112.93750  85.43750    48.00000   8.52602              7.17742
1119.46888  1373.59336  241.00000  24.28735             12.76710
1120.35632  1735.77778  261.00000  20.80987             18.41011
1117.77863  1066.43511  131.00000  13.70443             12.29198
1117.81481  837.08889   135.00000  15.15239             11.35604
1118.65641  852.87692   195.00000  19.47435             12.82598
1115.50704  1779.85915  71.00000   11.03750             8.21861
1117.70833  655.14583   48.00000   8.20218              7.44018
1120.28846  1029.65385  104.00000  12.68142             10.44815
1124.54870  181.76948   308.00000  23.61831             16.78710
1123.89076  1406.46218  238.00000  21.17671             14.33706
1122.02941  1766.60588  170.00000  14.99491             14.54710
1123.08065  563.39247   186.00000  16.44992             14.41748
1125.07407  117.61574   216.00000  16.82388             16.41779
1125.34630  913.39300   257.00000  20.40886             16.53033
1124.78491  1316.57358  265.00000  19.99938             17.17737
1123.96392  715.03093   194.00000  18.59588             13.29027
1126.71905  611.84286   210.00000  20.74493             13.32342
1127.48276  827.17241   232.00000  19.10883             15.78825
1126.68670  947.02575   233.00000  21.51895             13.87766
1128.37097  1115.98790  248.00000  23.34316             14.00192
1127.49645  1417.57447  141.00000  18.09450             9.96109
1128.89634  1293.14634  164.00000  15.80573             13.24096
1130.50201  878.47791   249.00000  18.59344             17.29345
1127.78195  1143.24060  133.00000  14.05380             12.18988
1135.73010  361.99654   289.00000  26.34294             14.13619
1135.15185  1345.18519  270.00000  25.87145             13.74161
1134.53134  758.40896   335.00000  36.38365             12.23053
1136.52720  684.30126   239.00000  22.60820             13.73721
1136.36842  817.62406   133.00000  14.64871             11.60977
1137.20000  1101.79130  115.00000  12.48870             11.77395
1146.98113  576.59245   265.00000  21.47383             15.90824
1141.84800  738.23200   125.00000  18.09982             8.92982
1143.40000  1057.78000  250.00000  24.64133             13.27970
1148.90311  1753.11419  289.00000  25.24176             15.04423
1149.14344  644.97951   244.00000  25.62248             12.44285
1147.54651  620.29070   258.00000  23.69257             14.01122
1150.80408  1038.54286  245.00000  20.98022             15.06080
1151.44800  846.42800   250.00000  20.23024             15.85192
1151.04231  1275.56154  260.00000  19.25759             17.34032
1150.76585  983.41951   205.00000  19.20770             13.63981
1153.44231  1296.38077  260.00000  22.43163             14.85270
1150.17582  903.04396   182.00000  18.15411             12.84616
1148.87097  1736.71774  124.00000  14.44949             10.96006
1154.00601  963.63664   333.00000  23.85915             18.16748
1153.49444  1153.17778  180.00000  16.49378             14.30711
1151.57746  247.23944   71.00000   10.83227             8.35233
1157.38428  779.09607   229.00000  19.44080             15.18155
1157.07018  1008.37719  228.00000  26.65222             12.01776
1158.60232  1450.56371  259.00000  19.94510             16.70315
1157.32093  916.71628   215.00000  21.44972             12.91138
1158.17333  831.32667   150.00000  15.45457             12.45077
1159.11806  1051.34028  144.00000  16.58267             11.08781
1160.44361  1112.91729  133.00000  14.14931             12.03868
1164.35987  509.20701   314.00000  23.53307             17.14598
1165.38690  556.97024   168.00000  16.43263             13.04707
1170.10630  982.91732   254.00000  20.06669             16.49429
1164.36634  1150.63366  101.00000  13.18870             9.78892
1170.02941  575.07983   238.00000  19.01423             17.01479
1171.02893  679.81818   242.00000  21.04801             14.82044
1171.79752  1372.45868  242.00000  19.78954             15.81677
1170.96667  649.70278   360.00000  29.89790             15.62675
1171.86290  1303.04839  248.00000  22.14249             14.51421
1174.50917  591.47706   218.00000  20.25176             13.99029
1176.53898  424.43051   295.00000  23.65259             15.89944
1179.92157  454.55742   357.00000  28.20805             16.23352
1180.93596  1097.06404  203.00000  17.78519             14.62332
1181.38516  856.36396   283.00000  25.49155             14.25235
1184.47788  1241.84956  226.00000  18.42109             15.67851
1186.37017  522.65193   181.00000  17.50720             13.38249
1189.18846  1308.88077  260.00000  23.05856             14.74499
1187.24762  774.60952   210.00000  23.90239             11.46913
1194.36499  545.02374   337.00000  25.61916             16.98975
1189.97233  1122.83399  253.00000  21.00647             15.48218
1191.41887  1001.29057  265.00000  25.45165             13.75180
1191.25000  1169.95652  92.00000   11.39020             10.30905
1197.30000  597.98095   210.00000  19.23944             14.51102
1195.67442  647.56977   172.00000  18.32390             12.03272
1197.70048  710.18357   207.00000  17.06866             15.49256
1197.60088  1222.18860  228.00000  18.57969             15.68193
1203.67742  1284.83513  279.00000  30.22936             12.02327
1199.68561  929.09091   264.00000  20.38272             16.95575
1199.16484  831.58791   182.00000  16.09199             14.45742
1204.08000  1133.26222  225.00000  22.61968             13.01763
1204.80075  1339.71053  266.00000  20.41435             17.01437
1205.62500  1169.99671  304.00000  21.22147             18.31534
1207.75355  1260.70616  211.00000  22.62680             12.13302
1205.14591  950.74021   281.00000  25.06907             14.45523
1206.60335  635.27933   179.00000  21.31864             12.15294
1206.66495  970.93299   194.00000  17.45006             14.25897
1207.98101  1025.65190  158.00000  16.64967             12.14818
1208.13953  1042.95349  301.00000  24.95305             15.49673
1208.32044  668.01105   181.00000  17.96601             12.91185
1212.38618  428.86992   246.00000  23.91368             13.37816
1212.13235  691.06863   204.00000  18.03431             14.50275
1210.85981  794.39252   214.00000  19.08826             14.36892
1208.00000  1150.09091  66.00000   10.52245             7.98069
1212.34884  854.16744   215.00000  19.64786             13.96719
1217.52516  473.52830   318.00000  21.32469             19.61970
1213.37143  1160.28571  35.00000   8.44092              5.30043
1218.83028  1245.94954  218.00000  17.58163             15.92988
1220.68966  765.85517   290.00000  20.53829             18.00609
1229.11163  499.15349   430.00000  34.02495             20.05518
1219.77333  895.54667   150.00000  15.53899             12.28018
1222.59740  744.96970   231.00000  17.75205             16.85297
1221.52866  1001.82803  157.00000  15.22254             13.15336
1222.76000  605.82222   225.00000  20.08002             14.33524
1223.13559  514.78814   118.00000  13.57771             11.24110
1224.95833  1441.71667  240.00000  20.20975             15.70097
1224.02548  440.66879   157.00000  16.31366             12.49191
1227.65152  1100.98485  264.00000  21.40667             15.79572
1226.41071  1161.21429  56.00000   10.23899             6.97040
1234.11413  657.89674   184.00000  24.80474             10.08649
1226.57143  1142.78571  28.00000   6.71520              5.38023
1234.00000  1332.06355  299.00000  28.82372             13.61112
1232.19577  790.72487   189.00000  18.24941             13.23584
1234.82609  192.09662   207.00000  17.48884             15.11246
1233.90756  558.73950   119.00000  14.30424             10.71000
1233.70886  576.31013   158.00000  19.77583             10.54688
1236.11801  671.62733   161.00000  21.22706             9.82001
1236.19331  854.12268   269.00000  22.97468             15.26696
1237.60000  1184.57455  275.00000  22.41168             15.72532
1240.41667  1002.86742  264.00000  21.52131             16.02701
1242.39526  1148.81818  253.00000  19.75478             16.53122
1238.89888  679.89888   89.00000   13.84204             8.39896
1247.00662  716.47351   302.00000  28.61538             13.95104
1242.74074  1447.91667  216.00000  20.16427             13.70836
1240.34646  568.83465   127.00000  17.09324             9.71475
1245.97297  1135.75676  222.00000  22.77783             12.60329
1244.03774  1061.92830  265.00000  24.81990             13.70812
1244.37500  799.48148   216.00000  18.61268             14.86662
1247.23256  898.14729   258.00000  21.12736             15.73583
1245.98788  922.89091   165.00000  16.93397             12.51348
1247.96815  210.90127   314.00000  24.35435             16.58080
1245.93467  542.33668   199.00000  19.72499             12.93655
1251.07973  874.99668   301.00000  24.84011             15.50254
1252.50338  1274.89527  296.00000  22.54072             16.76902
1256.71575  1210.02740  292.00000  23.06234             16.21522
1253.54183  635.73307   251.00000  24.30277             13.19665
1258.85765  960.48043   281.00000  23.39081             15.41175
1261.79233  689.01278   313.00000  26.73816             15.49300
1257.98529  376.50735   272.00000  25.34816             13.93458
1259.42629  936.90040   251.00000  20.02667             16.22973
1258.82008  596.01674   239.00000  21.95365             14.13355
1258.16949  981.54237   118.00000  13.22974             11.37992
1261.73967  1006.61157  242.00000  21.80887             14.23354
1262.69328  1111.76471  238.00000  19.77845             15.40604
1263.06019  1295.38426  216.00000  21.81427             12.69348
1262.27586  750.16092   174.00000  18.91479             11.84386
1264.79263  1142.38249  217.00000  20.11326             13.85722
1265.71967  557.60669   239.00000  20.48768             15.08093
1265.78601  1064.29630  243.00000  21.41442             14.50392
1269.11328  225.61328   256.00000  20.58920             15.88983
1268.35424  336.18819   271.00000  27.67539             12.68756
1271.88571  836.76000   175.00000  20.21793             11.11300
1272.42857  278.27922   154.00000  19.47646             10.30261
1273.43750  523.29297   256.00000  20.13506             16.40369
1273.52667  792.13333   150.00000  14.69133             13.11801
1276.31776  739.46262   214.00000  21.09595             13.10546
1276.29714  1247.04000  175.00000  16.53121             13.53010
1272.81818  431.50000   44.00000   9.01232              6.38707
1277.88000  848.31429   175.00000  15.21949             14.91985
1275.46667  1147.57143  105.00000  15.63215             8.85187
1279.20737  621.16590   217.00000  18.33670             15.10763
1280.28346  1016.33071  127.00000  15.39668             10.64981
1276.51724  1071.72414  29.00000   8.11066              4.56693
1285.78317  200.09061   309.00000  21.93036             18.14114
1283.49695  507.15549   328.00000  25.92120             16.32736
1284.22485  1060.74556  169.00000  15.81518             13.71087
1287.90909  423.39572   187.00000  17.02793             14.03244
1289.72727  950.51010   198.00000  19.37320             13.08298
1287.70588  795.65882   170.00000  21.44562             11.65349
1287.71066  1039.10660  197.00000  16.77091             14.97264
1288.85714  254.15000   140.00000  14.39826             12.50842
1290.61236  855.05056   178.00000  16.07302             14.15402
1291.17500  1246.02000  200.00000  19.64256             13.44595
1292.52857  1430.22381  210.00000  21.07051             12.81592
1295.50276  583.36464   181.00000  18.56296             12.44153
1295.17323  1133.84252  254.00000  20.41406             15.99691
1297.02264  1106.31321  265.00000  20.31694             16.64044
1299.08854  1254.44271  192.00000  18.74932             13.24896
1301.11692  697.01231   325.00000  22.69413             18.73027
1296.40000  780.83404   235.00000  23.54806             12.75777
1301.56993  898.32867   286.00000  24.87844             14.86105
1298.27488  1064.09953  211.00000  18.01797             15.15714
1301.71660  1079.79352  247.00000  23.59464             13.44466
1298.12432  24.25946    185.00000  17.42530             13.62616
1304.19157  262.34866   261.00000  19.32881             17.48177
1302.73000  963.01500   200.00000  17.72809             14.38836
1305.44482  1040.39799  299.00000  20.76882             18.52738
1306.20690  550.38424   203.00000  18.58055             13.95036
1303.39073  851.13907   151.00000  15.64166             12.34829
1301.04348  1016.17391  23.00000   6.59389              4.54995
1307.89017  524.46243   173.00000  15.32898             14.44215
1309.11976  1422.70659  167.00000  17.48540             12.18254
1310.17578  185.29688   256.00000  22.84895             14.45107
1314.55493  1147.55211  355.00000  22.41525             20.62407
1314.58478  949.23875   289.00000  20.82674             17.99967
1307.50000  1096.27273  22.00000   5.75247              4.85151
1314.20690  164.14224   232.00000  19.35997             15.37048
1317.85774  1203.95816  239.00000  20.64740             14.76548
1316.84416  1181.62771  231.00000  20.72902             14.36371
1320.68240  653.63948   233.00000  19.48812             15.59481
1320.89562  279.56229   297.00000  22.99446             16.58531
1320.52823  320.22177   248.00000  18.83135             16.97816
1317.86667  1102.32222  90.00000   12.27898             9.46531
1323.43162  774.11538   234.00000  20.34685             14.83038
1321.01531  807.05612   196.00000  18.31187             13.89056
1318.60465  1072.18605  43.00000   8.13067              6.71343
1323.15084  1416.39665  179.00000  17.03042             13.44053
1323.42130  743.03241   216.00000  18.20212             15.30590
1326.27184  692.68447   206.00000  18.34338             14.62301
1328.98765  1167.10700  243.00000  19.91680             15.56533
1325.16901  1217.76056  142.00000  14.92256             12.11910
1325.66667  1317.00000  231.00000  21.79414             13.53717
1322.42424  1086.42424  33.00000   6.68318              6.22799
1326.50538  1093.74194  93.00000   12.69867             9.51063
1328.74719  518.88764   178.00000  18.79551             12.15345
1330.53631  64.75419    179.00000  17.45924             13.09857
1331.62963  702.32407   108.00000  15.14820             9.61429
1330.00000  1131.00000  121.00000  13.52165             11.39123
1332.95082  846.62295   244.00000  21.79319             14.64294
1333.99474  866.22105   190.00000  21.15868             12.15825
1336.63813  1142.37354  257.00000  22.15783             14.89844
1333.70896  926.42910   268.00000  21.37052             16.09532
1339.77663  412.23368   291.00000  24.66555             15.12652
1334.07282  575.57767   206.00000  25.30735             10.48797
1334.70404  975.32287   223.00000  19.71450             14.59344
1335.50318  1206.38854  157.00000  16.09271             12.52505
1336.93500  1279.12500  200.00000  16.54946             15.51895
1338.12973  13.62703    185.00000  16.38131             14.41736
1339.12153  350.31250   288.00000  23.02036             15.98916
1338.28319  614.54867   226.00000  20.70480             14.06083
1334.62963  556.62963   27.00000   6.44756              5.35780
1344.94888  150.31949   313.00000  22.53738             18.23213
1345.15702  388.61983   121.00000  13.78880             11.25902
1346.56383  802.51596   188.00000  17.19146             14.11961
1349.83934  986.06925   361.00000  25.31244             18.27790
1346.70543  459.27907   129.00000  14.07231             11.75535
1344.27451  1107.52941  51.00000   8.99701              7.23492
1348.65217  649.24901   253.00000  22.90177             14.07645
1344.80556  1050.63889  36.00000   7.43873              6.23401
1348.66019  501.71845   103.00000  15.19928             8.73126
1349.87539  582.98754   321.00000  30.69621             13.58931
1351.36885  965.29918   244.00000  19.67008             15.80943
1351.86145  437.04217   332.00000  24.14767             17.67376
1355.98227  299.91844   282.00000  29.14240             12.48996
1355.30531  1216.83628  226.00000  19.71027             14.90831
1357.66809  793.28511   235.00000  19.93000             15.11615
1357.80212  1042.39576  283.00000  23.38522             15.63154
1358.42202  728.38073   218.00000  18.30513             15.19811
1357.98857  819.41143   175.00000  16.68787             13.58461
1358.43195  1146.60355  169.00000  16.45603             13.20417
1359.22963  695.13333   135.00000  14.03584             12.34206
1359.72289  709.55422   166.00000  17.05499             12.43570
1362.07910  507.49718   177.00000  18.84273             12.02415
1363.35417  659.82143   336.00000  22.48659             20.10160
1363.19841  998.68254   252.00000  18.91736             17.03831
1367.91322  1105.49587  242.00000  23.08412             14.44033
1363.09562  1118.68127  251.00000  20.57452             15.75817
1363.36100  912.34855   241.00000  20.94244             15.04211
1368.45000  1394.47917  240.00000  19.13145             16.01481
1369.49455  865.97818   275.00000  19.85763             18.18713
1368.58268  208.72441   127.00000  14.60627             11.11614
1370.99495  598.55051   198.00000  16.63644             15.24731
1372.20207  700.72539   193.00000  18.57442             13.36888
1374.88889  1173.23016  252.00000  24.93794             12.96295
1373.80833  471.41667   240.00000  22.36601             13.99033
1372.78000  1029.89500  200.00000  17.02435             15.06854
1375.19792  436.05729   192.00000  17.50733             14.14441
1375.43871  247.77419   155.00000  14.67651             13.47333
1377.50481  570.56731   208.00000  17.10847             15.55624
1376.21849  1156.93277  119.00000  15.17367             10.18399
1377.62434  1410.42857  189.00000  16.96643             14.19523
1383.36202  640.33828   337.00000  27.45474             15.85864
1382.03097  1375.40265  226.00000  17.33638             16.68845
1383.50196  295.34510   255.00000  23.98823             13.64740
1385.40500  528.46500   200.00000  18.86528             13.75562
1382.85526  737.90132   152.00000  17.82390             10.98452
1383.39103  958.01282   156.00000  16.86243             12.20673
1387.30802  387.35021   237.00000  18.90313             16.00320
1388.35065  442.90043   231.00000  19.87872             15.15549
1387.19368  683.89723   253.00000  21.30383             15.29738
1386.34437  749.08609   151.00000  14.73137             13.23816
1392.26341  659.44878   205.00000  18.28106             14.34512
1391.97006  1398.05389  167.00000  15.18620             14.00859
1392.60256  514.32906   234.00000  19.85678             15.19150
1391.59574  704.83511   188.00000  19.44106             12.34331
1395.24731  765.84946   186.00000  17.72116             13.37531
1394.07658  348.16667   222.00000  26.08786             11.15828
1394.42781  787.48663   187.00000  16.90868             14.12245
1394.49412  877.84118   170.00000  18.08883             11.97111
1394.89781  1049.20073  274.00000  25.42711             15.33878
1399.05814  1350.81783  258.00000  20.46274             16.61726
1404.06897  830.83333   348.00000  22.75162             19.53963
1402.03226  941.31613   155.00000  15.73020             12.57250
1407.42982  461.68421   228.00000  20.53467             14.25163
1404.70870  915.86087   230.00000  19.84819             15.06851
1405.23556  441.90222   225.00000  20.27383             14.17675
1406.27437  482.60650   277.00000  20.92851             17.00853
1407.84709  591.96942   327.00000  22.99724             18.33325
1405.82609  642.90338   207.00000  18.06273             14.65557
1412.17857  1167.74286  280.00000  24.34551             14.70518
1410.04950  948.36139   202.00000  22.68434             11.94561
1411.86266  1388.95279  233.00000  21.86797             13.99002
1413.71523  1399.54967  151.00000  18.72277             10.32398
1415.43322  1032.23127  307.00000  25.84701             15.89118
1419.47782  339.92491   293.00000  21.35817             17.68563
1417.52720  373.84519   239.00000  20.65937             14.73533
1416.55078  546.20312   256.00000  21.42349             15.43398
1420.07483  1092.81633  294.00000  23.07343             16.32309
1419.35252  417.96403   278.00000  21.14322             16.83751
1419.02165  902.07792   231.00000  17.98808             16.75271
1418.37931  1345.72414  174.00000  17.56162             12.72795
1419.03922  399.67157   204.00000  17.62105             14.88199
1419.41667  654.20833   216.00000  19.24380             14.38814
1421.27615  40.71130    239.00000  20.04514             15.31341
1424.74912  1002.10247  283.00000  21.94396             16.68842
1427.77936  515.79359   281.00000  21.51018             16.74833
1427.52361  767.35622   233.00000  20.72888             14.38226
1430.84052  729.48276   232.00000  19.00922             15.64575
1431.44828  694.97537   203.00000  18.65146             14.12512
1431.10044  618.19651   229.00000  26.98019             11.01438
1432.64255  677.40426   235.00000  19.46461             15.59902
1431.66327  402.78571   196.00000  20.59716             12.16149
1432.79904  977.69856   209.00000  21.14982             12.79509
1439.14768  490.80169   237.00000  22.55825             13.63987
1437.99567  1235.71429  231.00000  18.20326             16.24093
1436.62687  660.94030   67.00000   9.75185              8.75821
1442.99396  817.96375   331.00000  26.87263             17.66874
1441.42308  788.00000   182.00000  16.26716             14.25163
1442.55411  1305.94372  231.00000  20.41588             14.67613
1443.17904  616.28821   229.00000  18.24398             16.23156
1445.41700  425.56680   247.00000  24.55128             12.87625
1444.59542  926.33969   262.00000  21.80435             15.45389
1447.14741  1169.92032  251.00000  19.62943             16.45050
1445.68635  686.63838   271.00000  30.00366             11.61607
1446.48855  974.26718   262.00000  23.53979             14.53823
1444.19565  761.30435   46.00000   8.69127              6.77094
1449.25134  770.64171   187.00000  16.83803             14.33160
1453.75221  737.52212   339.00000  25.07034             18.73266
1455.15439  350.64561   285.00000  23.13853             15.87627
1453.43820  588.92135   267.00000  20.56660             17.43132
1455.42791  1014.44651  215.00000  17.43133             15.76282
1454.13725  1294.45098  153.00000  16.36779             11.93518
1454.93939  476.93182   264.00000  31.71235             10.80460
1456.07006  547.99363   157.00000  16.53153             12.18770
1456.65447  879.16667   246.00000  21.12226             14.97584
1461.56107  629.61450   262.00000  22.85868             14.76190
1460.38776  695.70068   147.00000  14.75993             13.24671
1465.46875  1213.75893  224.00000  22.89182             12.54212
1464.26609  1378.19742  233.00000  20.88099             14.52645
1461.86928  1390.66667  153.00000  14.93045             13.11081
1465.84896  149.36458   192.00000  17.49706             14.08112
1465.70213  657.27660   235.00000  18.53390             16.23431
1464.54444  704.98889   90.00000   11.38349             10.38291
1470.35448  971.26493   268.00000  25.92183             13.37963
1469.81301  1432.30894  369.00000  29.94667             15.83432
1474.78671  186.73776   286.00000  22.64688             16.15930
1475.97447  1190.57447  235.00000  19.13139             15.73725
1475.74554  332.04911   224.00000  17.32169             16.56671
1475.73684  108.09211   152.00000  16.45659             11.94461
1477.18750  818.47187   320.00000  25.33772             16.33477
1477.22407  1018.09959  241.00000  19.96030             15.73727
1478.24771  1148.57339  218.00000  19.87971             13.98640
1477.33333  33.98750    240.00000  21.49726             14.29292
1477.47321  1069.26339  224.00000  18.73780             15.23583
1477.77703  1102.88176  296.00000  21.62381             17.67843
1477.26316  701.97661   171.00000  16.58362             13.19870
1483.16561  395.21338   314.00000  24.70619             16.48481
1479.52586  473.50000   232.00000  19.36729             15.30159
1480.60843  996.99398   166.00000  15.47472             13.68870
1485.73022  1045.17626  278.00000  28.40707             13.05257
1484.63542  900.97569   288.00000  21.60668             17.32416
1487.87649  502.75697   251.00000  26.60069             12.32476
1484.26087  565.11594   138.00000  15.01517             11.81599
1485.38565  1255.80717  223.00000  18.99725             14.97037
1487.32031  877.37109   256.00000  24.70609             13.53981
1490.89850  923.52256   266.00000  22.71225             15.08009
1488.83721  940.68605   172.00000  17.05934             12.90397
1490.76224  1088.38462  286.00000  23.64610             15.57285
1488.58209  1584.25373  134.00000  17.14090             9.99884
1495.44201  240.53605   319.00000  22.46259             18.31824
1493.14000  450.60500   200.00000  20.56757             12.56683
1492.05590  1055.30435  161.00000  14.72415             14.00276
1494.62030  1226.83083  266.00000  22.53141             15.17044
1496.11618  543.46473   241.00000  22.19963             13.90314
1496.34302  751.69767   172.00000  15.65749             14.06829
1496.69149  1834.50000  94.00000   11.41529             10.63106
1501.62567  739.48128   187.00000  21.06948             11.42708
1501.48810  609.75000   252.00000  19.98447             16.13435
1498.84158  828.41089   202.00000  20.22840             12.85972
1507.68984  1523.60695  374.00000  23.83295             21.29499
1506.41597  667.49580   238.00000  19.23177             15.83027
1505.32895  802.65132   152.00000  15.81754             12.30842
1505.70886  1044.45570  237.00000  22.31358             13.56743
1507.62598  1464.08661  254.00000  19.09478             17.33300
1505.90674  329.64249   193.00000  16.71308             14.83105
1506.76023  378.94737   171.00000  16.81717             13.13213
1505.28926  720.80992   242.00000  23.53084             13.17721
1505.76214  1600.80097  206.00000  19.70233             13.66547
1507.20079  130.27559   254.00000  20.24266             16.00875
1509.15695  451.55157   223.00000  21.22466             13.58452
1512.33865  85.52988    251.00000  20.34935             15.76442
1510.17010  230.72165   194.00000  17.54334             14.18772
1508.39333  765.36667   150.00000  18.51903             10.40732
1516.36591  360.61404   399.00000  25.63669             19.93394
1512.98738  403.14511   317.00000  24.86616             16.41833
1510.25781  827.52344   256.00000  25.76058             12.99790
1516.88679  317.82642   265.00000  22.35021             15.22089
1512.71978  584.91758   182.00000  17.43708             13.29921
1516.55743  274.19257   296.00000  22.88728             17.08838
1517.60889  751.70222   225.00000  22.12543             13.01090
1517.26126  1304.83784  222.00000  18.33186             15.49709
1520.63014  790.30822   292.00000  22.69605             16.52485
1519.83206  878.07252   262.00000  27.45357             12.67424
1519.01818  171.51818   220.00000  19.17219             14.82682
1520.21633  1017.77143  245.00000  21.08855             14.92917
1520.49823  1188.43816  283.00000  20.27039             18.05970
1527.54478  218.59328   268.00000  20.97837             16.44818
1526.98312  121.54430   237.00000  20.04717             15.17212
1527.85714  562.19913   231.00000  20.79025             14.25249
1529.37725  1486.25150  167.00000  18.10986             11.84942
1532.78571  720.67081   322.00000  20.99882             19.87938
1534.94295  479.83221   298.00000  23.54945             16.49023
1531.81992  1710.41762  261.00000  21.71050             15.43283
1532.20918  1002.48980  196.00000  16.36787             15.44851
1533.82879  1153.33463  257.00000  23.31888             14.09558
1534.40496  1764.74380  242.00000  21.15880             16.33745
1535.34043  646.51596   188.00000  18.44073             13.03825
1535.46212  679.92803   264.00000  22.81686             14.86342
1536.22026  504.80617   227.00000  20.71976             14.04246
1538.18721  816.49315   219.00000  18.14359             15.55142
1539.42564  1313.41026  195.00000  18.31942             13.70970
1540.03286  535.10798   213.00000  18.37760             14.94949
1542.87448  571.93724   239.00000  20.68832             14.78877
1543.90397  247.64570   302.00000  22.32374             17.30897
1543.45693  170.77528   267.00000  23.39436             14.89392
1545.85603  432.50584   257.00000  20.55462             15.93690
1545.94488  791.87008   254.00000  21.32691             15.54755
1546.89247  1030.18280  279.00000  20.55660             17.53534
1548.57214  1488.84577  201.00000  17.84749             14.40799
1553.61803  837.45064   233.00000  22.04137             13.73171
1554.45133  642.42478   226.00000  23.80560             12.45865
1557.41762  343.29502   261.00000  25.03106             13.56376
1555.63830  1317.18617  188.00000  18.98891             12.65278
1558.76639  629.94262   244.00000  20.89030             15.59678
1555.77564  1451.75000  156.00000  16.98698             12.40744
1558.71986  1115.04255  282.00000  26.29949             14.14373
1557.17222  456.36667   180.00000  17.21226             13.35503
1558.41991  1092.57576  231.00000  23.51590             12.77115
1559.64414  471.01351   222.00000  20.91516             13.58938
1559.50833  811.71667   240.00000  21.97975             14.10928
1565.79433  219.09574   282.00000  20.37575             17.78851
1565.08681  865.10069   288.00000  20.94678             17.97080
1568.43750  400.90865   208.00000  16.97321             15.68753
1572.59245  486.98113   265.00000  22.53038             15.12207
1574.90102  1004.42321  293.00000  25.29532             15.28852
1573.43204  804.84466   206.00000  18.17975             14.54113
1574.87823  1514.44280  271.00000  21.38910             16.47102
1574.10150  1593.14662  266.00000  19.11421             17.77985
1573.88038  545.11962   209.00000  17.06513             15.63207
1575.33077  690.03846   260.00000  19.78574             16.84261
1577.85022  1068.23348  227.00000  20.21853             14.33603
1579.09705  1432.11392  237.00000  18.77060             16.18818
1582.63317  556.33668   199.00000  17.16896             14.87076
1581.21076  762.21076   223.00000  21.73604             13.25119
1584.76571  940.18857   175.00000  18.02255             12.53853
1582.23333  1038.06667  270.00000  26.26690             13.24011
1585.77181  1263.27517  298.00000  21.63325             18.21198
1585.91700  1614.84585  253.00000  24.10151             14.16568
1589.55301  822.92550   349.00000  24.93602             18.16980
1588.02030  955.47208   197.00000  16.96053             14.95904
1588.79000  1323.08500  200.00000  17.09753             15.00044
1591.00000  527.59821   224.00000  21.27765             13.55809
1593.32319  883.42205   263.00000  20.15583             16.77555
1591.38843  897.23140   121.00000  14.19186             11.16731
1594.41797  756.80469   256.00000  19.89821             16.40787
1597.02963  716.41852   270.00000  25.51549             13.56502
1596.93367  422.71429   196.00000  16.87778             14.86431
1597.62712  1013.04661  236.00000  23.92384             12.67992
1600.79927  263.70438   274.00000  22.33709             15.75093
1595.75000  536.13636   44.00000   8.63367              6.45111
1599.52459  653.49836   305.00000  26.02754             15.14911
1603.78947  773.41627   209.00000  18.00412             14.95981
1604.58974  900.29304   273.00000  22.12266             15.79727
1608.16602  1314.15444  259.00000  22.68940             14.94229
1609.58491  607.71321   265.00000  26.62331             12.82222
1613.71138  521.09756   246.00000  25.76453             12.50450
1611.84615  1403.82051  156.00000  16.73723             11.96562
1617.76259  580.92446   278.00000  22.24329             16.01298
1616.64057  1163.12456  281.00000  20.24605             18.60383
1618.91275  1537.72148  298.00000  21.04296             18.27801
1616.98400  993.84000   250.00000  30.18605             10.61945
1620.67234  1584.28085  235.00000  21.58468             14.05726
1621.33505  503.82990   194.00000  17.20252             14.43506
1624.53242  425.85666   293.00000  22.42898             17.20489
1623.22097  474.64419   267.00000  21.59054             16.07894
1624.40090  536.33784   222.00000  18.74007             15.12999
1624.03553  804.88832   197.00000  18.38765             13.68943
1629.29605  295.84211   152.00000  18.57767             11.40247
1629.51575  761.68504   254.00000  20.62343             15.77837
1630.67730  861.96809   282.00000  30.13692             12.40160
1630.99522  639.63158   209.00000  16.93680             15.76036
1632.10549  1559.18987  237.00000  18.15772             16.77268
1635.40514  1319.15756  311.00000  25.54506             15.95216
1636.22896  979.51178   297.00000  24.28579             16.06466
1637.15768  1695.28216  241.00000  21.04530             14.89453
1639.06810  446.48387   279.00000  21.65619             16.48957
1637.90152  555.56439   264.00000  24.26169             14.11201
1639.15636  618.35273   275.00000  26.29581             13.33523
1639.74302  946.81564   179.00000  18.26841             13.00257
1644.84211  467.40486   247.00000  25.92686             13.10990
1641.16384  960.49718   177.00000  16.09800             14.06908
1645.66023  683.82625   259.00000  21.53173             15.46301
1641.85876  732.92090   177.00000  18.62202             12.13898
1646.01220  927.88618   246.00000  26.64708             11.85412
1645.40206  713.19072   194.00000  20.08873             12.49643
1647.97487  908.22613   199.00000  18.69380             13.73200
1651.20769  796.59231   260.00000  21.46859             15.57500
1651.43893  1096.00382  262.00000  24.68281             13.59209
1649.92908  306.31206   141.00000  19.69418             9.27155
1652.81395  854.70543   258.00000  21.45811             15.33889
1653.98492  1705.71859  199.00000  17.96100             14.12333
1656.84762  702.85238   210.00000  17.67640             15.50317
1656.58716  1785.59633  218.00000  18.06243             15.48754
1656.00000  415.46610   236.00000  21.77041             13.94410
1657.38565  619.66368   223.00000  20.80606             13.65081
1663.52124  535.86873   259.00000  24.30431             13.74500
1658.68750  752.16346   208.00000  19.51625             13.65970
1660.80357  346.64286   168.00000  17.55727             12.46856
1666.23782  645.68481   349.00000  29.81212             15.76688
1663.80374  1360.94393  214.00000  17.76356             15.47427
1662.55801  687.17127   181.00000  18.37447             12.69443
1665.31034  1735.62759  145.00000  18.00568             10.41390
1669.33333  499.51282   117.00000  15.50879             9.93937
1669.53659  590.70244   205.00000  17.42541             15.22866
1672.47009  484.14530   234.00000  20.58847             14.49793
1671.88839  871.44643   224.00000  21.62749             13.53590
1679.65401  547.99578   237.00000  20.12767             15.11864
1678.34100  810.62835   261.00000  20.61107             16.15592
1678.98113  1586.18239  159.00000  16.73591             12.15106
1684.17849  978.00229   437.00000  27.90226             20.13529
1682.99650  742.58042   286.00000  24.90097             14.67809
1686.27988  1017.83965  343.00000  28.68496             15.48133
1687.89677  827.69355   310.00000  31.60113             12.56333
1688.48295  222.92045   176.00000  15.25566             14.77328
1690.94468  194.59574   235.00000  18.69179             16.10880
1691.69863  663.19863   146.00000  15.19629             12.31000
1692.42683  1575.96341  164.00000  15.63922             13.43059
1696.35065  1422.94481  308.00000  21.74507             18.15928
1697.50842  511.05387   297.00000  24.27911             15.63771
1696.87738  633.38692   367.00000  32.60981             14.44911
1698.04132  1800.29752  121.00000  14.82269             10.88791
1696.88482  396.89005   191.00000  24.13560             10.46055
1703.60432  456.20504   278.00000  25.35988             14.35323
1707.58355  673.91777   377.00000  28.14509             20.55064
1702.45139  571.76042   288.00000  21.75736             16.94254
1701.50000  898.92105   342.00000  28.74396             15.42234
1702.21902  972.65706   347.00000  26.87502             16.77845
1704.02516  1354.92453  159.00000  18.33986             11.15477
1713.23040  1031.91924  421.00000  32.18657             16.96027
1711.64897  1380.84956  339.00000  26.10133             17.50711
1708.70455  612.52273   132.00000  16.41061             10.31984
1710.98883  1749.95531  179.00000  15.86962             14.43183
1713.90365  774.60797   301.00000  26.86901             14.28031
1712.32258  1894.25806  93.00000   11.48742             10.69705
1717.54545  910.69697   231.00000  20.48583             14.51815
1720.04651  878.47093   172.00000  16.86206             13.03285
1722.27083  827.61111   144.00000  16.81492             10.92391
1724.29064  950.83744   203.00000  17.73606             14.71278
1723.38017  252.66942   121.00000  14.46933             10.73801
1725.47904  238.78443   167.00000  16.91481             12.62499
1727.00813  1069.15854  246.00000  21.04426             15.18196
1732.21503  1002.15285  386.00000  27.85337             18.53573
1727.91176  1701.35784  204.00000  17.18635             15.23493
1732.40196  561.54902   204.00000  21.95684             12.67618
1729.59701  1052.48756  201.00000  16.89648             15.27746
1729.81977  738.67442   172.00000  18.27799             12.06866
1733.26103  812.93015   272.00000  22.24547             16.84794
1733.46632  271.00000   193.00000  17.91336             13.75827
1734.29016  444.96373   193.00000  18.63077             13.24316
1735.85776  1433.21552  232.00000  19.60342             15.45464
1735.33708  511.77528   178.00000  15.71194             14.48567
1739.40960  1347.30791  354.00000  24.58478             18.71636
1737.61728  202.03704   162.00000  17.15153             12.09643
1739.25758  487.75758   132.00000  14.50314             11.75596
1738.72093  532.00000   215.00000  20.35537             13.57850
1741.60256  1668.52564  156.00000  14.60275             13.66697
1749.25304  715.97324   411.00000  28.27249             21.31584
1746.14523  761.70124   241.00000  21.67028             14.18091
1749.75410  526.47541   61.00000   9.14643              8.50198
1761.73822  1443.32723  382.00000  31.98181             15.45363
1761.86567  15.97512    201.00000  18.56296             13.94636
1762.02674  620.86096   187.00000  19.43840             12.25439
1765.27331  1081.85531  311.00000  23.81855             16.81051
1767.83429  1603.53143  175.00000  17.17932             13.26925
1767.94643  48.86607    224.00000  19.70754             14.57963
1766.07650  638.89071   183.00000  19.77022             11.78408
1768.02586  226.77586   232.00000  20.60911             14.44974
1771.20495  557.51590   283.00000  25.09718             14.46720
1772.47465  483.48387   217.00000  18.79115             14.93034
1777.37770  1283.73381  278.00000  23.57442             15.10335
1773.45815  198.66960   227.00000  22.73434             12.77045
1785.32609  647.09783   368.00000  40.80780             13.82498
1776.76543  87.12346    81.00000   11.90953             8.76873
1782.97318  581.01533   261.00000  19.45275             17.12509
1782.20982  1483.69643  224.00000  18.70147             15.28320
1785.12571  503.26286   175.00000  17.18024             13.15515
1785.12637  110.49451   182.00000  16.63320             14.10337
1791.12025  1296.30380  158.00000  15.51237             13.03501
1793.98370  1608.94022  184.00000  19.37273             12.23436
1792.02083  608.05208   192.00000  20.22039             12.18273
1798.49528  1118.84906  212.00000  18.38873             14.84953
1811.14226  325.77406   239.00000  22.25099             13.88370
1811.91630  1652.54626  227.00000  17.62343             16.73056
1813.88119  1611.23267  202.00000  16.51120             15.67843
1814.19492  231.61864   118.00000  14.49700             10.46968
1821.71905  462.05238   210.00000  18.09784             14.85932
1829.82258  1158.68433  434.00000  31.54122             17.80781
1827.56122  1598.03061  196.00000  16.71495             15.03618
1825.13158  302.71053   76.00000   10.69046             9.12437
1829.48438  491.68750   192.00000  17.62163             13.98494
1833.01105  1314.41436  181.00000  16.36300             14.09362
1836.21839  274.74713   87.00000   13.16216             8.43944
1843.14885  371.87023   262.00000  22.41517             15.02635
1843.14683  663.03175   252.00000  18.88914             17.13017
1842.91566  285.71687   166.00000  20.49055             10.38273
1851.51827  1181.05648  301.00000  23.74920             16.31335
1849.05696  335.51266   158.00000  14.90451             13.57692
1860.13260  437.92265   181.00000  19.18897             12.20192
1867.74916  1216.32107  299.00000  21.78543             17.53229
1873.25359  1328.88517  209.00000  21.13993             12.85091
1873.55947  682.91189   227.00000  19.70939             14.72188
1876.42661  480.76147   218.00000  23.44490             11.88248
1874.43558  1496.51534  163.00000  15.16340             13.85069
1884.79741  582.12500   232.00000  18.97110             15.64314
1884.36765  1240.86765  204.00000  17.56429             14.80706
1893.06122  1494.20918  196.00000  16.65071             15.13861
1895.71579  535.03158   190.00000  21.38682             11.40595
1895.47525  458.60891   202.00000  20.38900             12.74308
1898.36076  478.36076   158.00000  15.06526             13.44703
1901.14286  554.17347   196.00000  17.81880             14.08605
1904.37719  518.10088   228.00000  22.04603             13.36229
1903.82927  290.12195   82.00000   13.16142             7.90953
1910.44286  1386.24762  210.00000  17.75255             15.16024
1917.69101  482.84831   178.00000  18.49654             12.32082
1921.47887  1369.67606  213.00000  17.36347             15.67802
1920.85430  1342.39073  151.00000  15.36029             12.51467
1923.50282  528.90960   177.00000  19.53645             11.59991
1921.26000  457.65000   100.00000  13.07071             10.24670
1924.78947  1326.48684  152.00000  14.05115             13.78636
1967.40336  482.92437   238.00000  20.49183             14.90739
2000.06842  435.36842   190.00000  18.48940             13.16697
2013.66162  391.58586   198.00000  19.21042             13.21614
2014.00000  1469.18894  217.00000  17.81454             15.64841