# Filename: Nuclei_bidi_pfa_002.npz
# Voxel size (nm): (108, 108)
# Area quantity: voxels
# Num nuclei detected: 695
Y           X           AREA       MAJOR_AXIS_LENGTH    MINOR_AXIS_LENGTH
21.31092    537.17647   119.00000  13.71081             11.47092
198.15625   166.15625   128.00000  15.49674             10.63343
298.29412   673.38655   238.00000  18.57880             16.35616
312.22363   648.78903   237.00000  20.17714             15.07938
320.19915   683.27966   236.00000  23.26339             13.23247
329.45070   604.62676   284.00000  24.57195             14.96219
339.59884   719.83430   344.00000  28.54910             15.89588
352.97653   738.33333   213.00000  20.75465             13.22334
378.61181   793.54008   237.00000  17.96208             17.23524
382.49451   776.01465   273.00000  22.18626             15.85189
393.71564   802.18009   211.00000  22.72790             11.91437
392.94595   373.91892   259.00000  22.40676             14.85352
408.39464   743.35249   261.00000  21.43706             15.93773
419.09187   373.22968   283.00000  22.77207             15.91058
425.00000   728.39502   281.00000  23.33827             15.68607
425.54422   775.20748   294.00000  31.79387             12.15521
438.95804   792.88811   286.00000  32.97888             11.68096
455.90179   1099.77232  224.00000  22.08186             13.06223
458.73312   415.76527   311.00000  23.29473             17.12908
475.84848   801.96970   198.00000  18.63954             13.77391
486.85580   424.61129   319.00000  24.21474             16.88574
487.75094   737.00000   265.00000  24.28293             14.08397
494.27477   1080.41441  222.00000  17.55986             16.24980
509.93194   730.14660   191.00000  17.84516             13.78524
509.98974   861.50256   195.00000  18.61068             13.51921
515.31092   717.18067   238.00000  23.25027             13.20344
519.97490   464.80335   239.00000  19.83887             15.44756
522.08333   449.35985   264.00000  23.28297             14.51516
526.69173   1061.30827  133.00000  13.98265             12.16185
528.71333   1072.70667  150.00000  14.95549             12.94456
533.19608   783.15686   204.00000  18.12558             14.40668
538.01550   852.74419   129.00000  14.89319             11.13808
538.49194   841.33871   124.00000  13.10628             12.06174
548.01282   889.77885   312.00000  23.22027             17.29927
544.62963   1052.28148  135.00000  14.93754             11.53224
551.14384   794.53425   146.00000  16.93217             11.14873
553.37245   818.89796   196.00000  22.77653             11.12025
556.89161   482.03147   286.00000  25.11741             14.61736
555.38362   1288.25000  232.00000  17.83818             16.69699
557.24176   808.82967   182.00000  19.87411             12.01530
555.96855   755.80503   159.00000  17.52860             11.70060
556.81461   1026.56742  178.00000  16.16753             14.08360
563.80576   993.33813   139.00000  15.00048             11.94737
572.05397   722.22857   315.00000  30.22120             13.86853
568.65385   1099.52404  208.00000  18.32199             15.03564
568.35878   843.83206   131.00000  15.86988             10.96501
567.69072   1003.72165  97.00000   12.16214             10.39790
575.92038   748.04459   314.00000  23.14980             17.39037
570.87293   945.77348   181.00000  17.31245             13.42611
573.66337   887.91089   101.00000  14.78734             8.77826
576.25714   1126.65143  175.00000  16.22184             13.83984
576.69032   1281.07097  155.00000  18.95153             10.46031
579.42908   503.31915   282.00000  21.99581             16.41847
580.25498   1010.59761  251.00000  23.03617             14.13701
580.51685   832.16854   178.00000  18.87505             12.05200
582.01190   880.55952   168.00000  18.13532             12.00809
595.14966   790.01134   441.00000  31.33820             19.30155
583.04444   923.66667   45.00000   8.27552              6.88443
591.43478   477.84541   207.00000  17.32190             15.30381
596.04981   498.02299   261.00000  19.22721             17.35935
595.51362   991.58755   257.00000  21.27790             15.60645
596.15301   954.56831   183.00000  15.47863             15.19369
595.98519   929.74074   135.00000  14.59685             11.96605
600.54015   1092.82117  274.00000  24.60295             14.53201
603.85294   1269.15966  238.00000  20.24275             15.06618
605.69153   920.11525   295.00000  25.16487             15.23791
606.96654   1074.27881  269.00000  20.21250             17.18324
605.37736   1145.58491  212.00000  16.81049             16.11499
608.56115   1107.15108  278.00000  22.85343             15.55036
605.89189   1041.79730  222.00000  18.78433             15.15203
610.20351   481.93684   285.00000  21.93045             16.69076
608.09589   1133.26027  73.00000   11.25541             8.32736
612.00995   907.68159   201.00000  18.16046             14.18698
615.16923   1126.40000  130.00000  14.86821             11.22270
619.59336   670.09544   241.00000  19.63568             15.81104
622.46281   834.18182   242.00000  18.38181             17.12485
626.57203   1012.12712  236.00000  28.67194             11.72648
624.53552   1083.55191  183.00000  16.94867             13.80352
628.17197   1066.87580  314.00000  26.70548             15.47656
625.38000   1147.96667  150.00000  15.20928             12.68922
634.53439   813.02646   189.00000  16.90273             14.75310
635.48485   692.11255   231.00000  20.94272             14.07591
634.32632   1132.77895  95.00000   13.80312             8.84004
639.37281   1105.78947  228.00000  18.96266             15.34437
637.18182   1142.31469  143.00000  15.39471             11.95774
634.91667   892.40000   60.00000   10.25649             7.52772
642.95918   981.89456   294.00000  21.90092             17.29404
647.48466   1015.44785  163.00000  20.71850             10.12303
645.86473   1039.69565  207.00000  18.53552             14.87120
649.54430   1077.22363  237.00000  22.40437             13.52282
650.79695   1001.94924  197.00000  20.03764             12.57122
649.96078   1123.71569  204.00000  20.34205             12.82540
650.10968   1269.05806  155.00000  15.80210             12.49550
656.04624   831.14451   173.00000  17.83519             12.96550
655.68235   935.81569   255.00000  20.54117             15.93505
657.21245   910.31136   273.00000  20.21728             17.44083
659.47059   1037.58289  187.00000  18.37107             13.04723
659.06736   1090.43005  193.00000  16.70400             14.86577
660.06667   1113.00000  180.00000  17.44939             13.12431
663.65532   696.23830   235.00000  18.66671             16.32006
663.07981   1258.67606  213.00000  17.82515             15.33459
666.07386   803.48295   176.00000  21.24292             11.08689
670.03817   836.81298   262.00000  28.55308             12.07425
670.38140   1070.90698  215.00000  18.60510             14.89555
677.60199   797.68657   201.00000  25.00650             10.55577
669.04762   956.55556   63.00000   9.65880              8.26657
675.63388   925.57377   183.00000  17.13850             13.84917
673.54839   942.04839   62.00000   9.35786              8.45295
679.38247   1087.50199  251.00000  22.79665             14.06970
686.25000   886.61441   236.00000  22.56028             13.95612
680.61290   1174.16129  31.00000   6.81739              5.98922
688.16168   955.94012   167.00000  18.70715             11.43733
689.73125   684.02500   160.00000  17.45633             11.79877
689.55455   922.13182   220.00000  22.38932             12.67466
685.53125   989.25000   64.00000   10.61739             7.66521
687.94937   1010.62658  158.00000  15.62905             12.89657
688.60667   1072.49333  150.00000  16.59417             11.58264
697.84848   1062.69318  264.00000  22.60499             15.37181
695.71687   1086.81325  166.00000  18.11880             11.75200
697.83333   694.40000   180.00000  18.22599             12.71604
695.19333   815.50000   150.00000  18.14899             10.70776
698.26882   988.90860   186.00000  17.61562             13.49361
705.72297   1106.25338  296.00000  29.97920             13.17729
700.52660   1043.80851  188.00000  21.54873             11.76323
702.24481   1175.66390  241.00000  18.38237             17.19315
712.48185   1126.24092  303.00000  27.18301             14.92395
703.84234   1203.91441  222.00000  20.32093             13.98922
706.70270   820.79279   222.00000  19.16656             15.25701
701.90164   1239.22951  61.00000   10.51341             8.14290
710.13962   1360.30189  265.00000  20.18525             16.84089
707.26455   18.71429    189.00000  19.83792             12.25692
707.77536   1051.05797  138.00000  14.39565             12.39997
709.58268   777.70079   127.00000  16.68278             9.85172
712.00000   84.14667    225.00000  20.40506             14.27353
713.12338   769.62338   154.00000  19.48767             10.48206
713.35540   1159.39721  287.00000  23.10924             16.50962
721.34225   1174.37433  187.00000  23.75217             10.53930
731.96057   852.18996   558.00000  38.58604             19.79263
724.61852   58.36296    270.00000  22.96490             15.00714
721.34413   912.05263   247.00000  22.89873             13.92957
723.58776   1062.40408  245.00000  20.19302             15.48259
724.82090   1183.05224  134.00000  14.41207             12.30839
725.76552   1001.47586  145.00000  16.37796             11.46529
727.85714   14.69103    301.00000  23.80991             16.28010
729.33663   830.34653   202.00000  18.77990             14.26818
731.73171   715.95122   246.00000  20.13604             16.55100
732.56475   1101.14029  278.00000  21.71608             16.83781
730.10417   1128.05556  144.00000  15.02464             12.20808
731.13636   1356.18595  242.00000  19.51594             15.84730
732.96899   935.92248   258.00000  26.78365             12.86474
741.85473   959.55068   296.00000  25.08729             15.81071
742.07054   982.74689   241.00000  25.63967             12.06177
742.06463   240.75850   294.00000  23.16386             16.28029
741.70518   263.44223   251.00000  19.88637             16.09572
740.67078   1330.90947  243.00000  18.51500             16.87195
740.25893   1154.97321  112.00000  14.66896             9.81370
745.52941   344.61961   255.00000  20.98811             15.53672
747.56780   898.72034   236.00000  22.10748             13.85282
746.69347   1017.20101  199.00000  17.46881             14.68693
747.07339   1363.38991  218.00000  22.60864             12.27292
751.83255   1039.20047  424.00000  25.18966             22.72918
751.63424   1067.07782  257.00000  22.01783             15.25341
753.66447   1108.29605  152.00000  23.05186             8.90521
755.27820   65.90602    266.00000  20.87633             16.30634
754.60234   910.03509   171.00000  16.03651             13.68739
758.52361   724.24893   233.00000  20.02293             14.94211
755.99200   1122.68000  125.00000  13.45056             12.00945
760.41569   823.52157   255.00000  19.31690             16.95319
758.28125   1001.16250  160.00000  16.03695             12.70544
757.26667   879.70000   30.00000   7.05937              5.50038
768.37195   1128.92683  164.00000  19.66551             10.85347
765.06404   1279.89163  203.00000  17.97293             14.48325
766.66667   1175.28889  180.00000  16.91197             13.57551
769.48954   1148.84519  239.00000  18.76587             16.36537
769.37209   1349.66279  258.00000  20.08750             16.49502
770.75622   1016.47264  201.00000  17.83263             14.59570
770.36719   1313.25391  256.00000  20.47302             16.00325
773.35593   271.45424   295.00000  22.87769             16.49206
778.09859   862.64319   213.00000  16.85034             16.14474
781.03417   1236.48292  439.00000  28.37193             21.20201
777.38983   817.91525   118.00000  14.53599             10.43409
778.08929   909.28571   168.00000  17.01693             12.74437
784.47843   979.04314   255.00000  20.79429             15.82402
785.57198   1094.68872  257.00000  25.07396             13.55999
782.16149   894.69565   161.00000  15.86396             13.26839
785.26829   1253.40488  205.00000  20.06665             13.34107
782.58400   1310.10400  125.00000  15.98966             10.04692
784.95625   828.16250   160.00000  17.11836             12.08341
785.91525   1146.98305  177.00000  16.00395             14.38543
790.82121   1046.55758  330.00000  25.88244             16.75081
790.08097   327.51417   247.00000  19.16279             16.49289
790.68826   721.08907   247.00000  20.52742             15.43971
787.77533   762.74890   227.00000  20.57482             14.33724
791.68726   779.27799   259.00000  19.62602             17.91708
795.63830   850.48463   423.00000  26.23557             21.30160
794.64754   1125.59426  244.00000  24.17234             12.96633
788.85246   962.34426   61.00000   9.40950              8.22453
795.05058   1201.02724  257.00000  18.51455             17.76126
796.28395   797.06790   162.00000  17.79061             12.14144
797.12205   310.57087   254.00000  19.69427             16.46968
797.24896   1155.55187  241.00000  20.28797             15.26728
797.12727   1311.57091  275.00000  22.91862             15.33520
797.85159   822.04240   283.00000  24.19466             15.72434
795.82105   1187.90526  95.00000   12.11415             10.04211
796.87931   1081.36207  58.00000   11.06941             6.75428
801.86875   1276.52500  320.00000  26.45681             15.48714
800.68000   1063.87000  200.00000  18.16308             14.09801
803.73139   1030.86084  309.00000  24.44299             16.18866
804.31469   900.15035   286.00000  22.70186             16.75141
805.13710   790.70161   124.00000  16.83551             9.63871
805.57792   1004.66234  154.00000  15.81092             12.57455
807.94931   1221.95392  217.00000  18.76449             15.07105
808.05263   339.85646   209.00000  19.03865             14.00300
813.31000   748.48500   200.00000  19.94847             12.83267
809.69903   1180.55340  103.00000  12.60002             10.49535
812.83824   1363.61765  204.00000  17.84876             14.69151
813.26214   1256.95146  206.00000  20.10576             13.08003
819.10119   960.81548   168.00000  19.67639             11.31108
815.30275   1152.56881  109.00000  13.84090             10.05431
816.60000   913.55000   180.00000  18.28584             12.75431
818.44059   1202.16337  202.00000  18.45263             14.06797
814.46429   723.42857   28.00000   6.64562              5.37369
821.75000   946.24490   196.00000  20.58969             12.35458
822.91860   736.12403   258.00000  21.96030             15.32078
820.13568   1087.02513  199.00000  17.35734             14.67662
822.56198   345.77273   242.00000  20.57089             15.10679
822.16598   374.87967   241.00000  23.32093             13.19599
820.66207   1221.93103  145.00000  15.79416             12.11923
825.63763   1234.52265  287.00000  22.37792             16.79113
823.49206   1012.52381  189.00000  16.61954             14.80644
829.62857   1355.15238  210.00000  17.78984             15.12959
829.80203   1151.75127  197.00000  20.38932             13.18816
828.65909   1211.34091  132.00000  13.77999             12.21396
831.28505   1263.83645  214.00000  17.03547             16.00786
830.00909   925.49091   220.00000  25.96057             10.92832
832.26531   959.39796   98.00000   12.07571             10.54759
842.44444   723.29252   441.00000  25.52696             22.69924
839.44712   382.52885   208.00000  19.86117             13.55669
837.73059   396.68037   219.00000  17.96445             15.73636
838.88839   1141.14732  224.00000  17.74951             16.13717
839.69820   1016.02703  222.00000  21.64330             13.24234
841.64615   346.89231   195.00000  17.08260             14.52941
845.00917   1006.39450  218.00000  24.73450             11.45663
845.67982   1212.17544  228.00000  21.57364             13.63779
844.14286   963.06548   168.00000  17.91818             12.14088
847.00407   790.54878   246.00000  23.15611             14.88766
846.55556   1047.09150  153.00000  15.16800             12.96942
846.06422   1179.40367  218.00000  18.59049             14.97813
848.76303   748.36019   211.00000  16.90532             15.96186
852.00000   911.27363   201.00000  19.12755             13.62407
852.28082   863.04110   292.00000  24.96794             15.21979
862.96528   1079.43056  288.00000  22.41138             16.64899
862.65657   376.83333   198.00000  18.20100             13.88729
863.65244   969.73171   164.00000  16.70044             12.53526
865.75455   1109.84091  220.00000  19.71213             14.26340
864.35500   825.29500   200.00000  18.12103             14.26253
868.39847   886.77011   261.00000  26.95233             12.76228
868.27237   1271.11284  257.00000  24.69428             13.46823
868.36397   797.29779   272.00000  27.05074             14.80902
863.99010   864.72277   101.00000  13.83967             9.40322
870.01648   1188.23626  182.00000  17.18742             13.69537
872.18033   1360.30601  183.00000  17.65547             13.25221
873.17695   870.08230   243.00000  21.83986             14.56897
872.29651   1029.41860  172.00000  17.14739             12.84210
871.40476   1048.98810  168.00000  16.33305             13.19229
877.06842   1063.25263  190.00000  18.10098             13.46557
874.55645   806.95161   124.00000  13.36785             11.86697
876.82857   1196.87143  140.00000  15.85801             11.46000
879.57143   1106.23077  182.00000  17.36173             13.62646
882.98406   402.53386   251.00000  19.80100             16.39677
882.68478   983.11594   276.00000  24.28830             14.62125
880.86190   916.87143   210.00000  19.15238             14.19884
888.57977   811.28794   257.00000  20.42412             17.08558
885.52830   1379.58491  159.00000  14.94146             13.58396
888.83539   421.23457   243.00000  19.00303             16.44767
892.37255   742.43627   204.00000  19.75648             13.62034
891.82412   1136.93970  199.00000  17.83783             14.21911
891.12155   867.66851   181.00000  16.04180             14.51776
894.47458   1029.95254  295.00000  22.42518             16.74678
895.88995   1106.65072  209.00000  19.67427             13.95490
894.00617   774.59877   162.00000  14.90937             14.01669
895.82468   435.36364   154.00000  14.54423             13.52970
897.61006   824.70440   159.00000  16.81187             12.15500
896.52778   733.80556   36.00000   7.23426              6.49302
905.02073   1154.67358  193.00000  17.56937             14.04320
904.46000   903.38667   150.00000  15.51808             12.44179
908.52941   862.55080   187.00000  19.22250             12.97062
920.85281   460.47186   462.00000  35.26956             17.08882
913.08854   397.26562   192.00000  18.02081             13.61969
915.54911   1405.52679  224.00000  20.56982             13.96846
914.70414   843.49704   169.00000  18.44907             11.66928
916.42029   1063.89855  69.00000   10.28217             8.52170
922.22441   1359.25984  254.00000  22.40234             14.64746
921.71090   413.93365   211.00000  17.42296             15.52188
921.40826   1097.53670  218.00000  19.05994             15.08183
923.22105   746.28421   190.00000  18.89639             12.92935
925.37368   760.65263   190.00000  16.04224             15.14969
925.50000   1417.03125  192.00000  16.04555             15.28151
925.80435   848.81159   138.00000  18.18290             9.73409
936.11012   819.09226   336.00000  24.13258             18.48431
933.87984   1130.32171  258.00000  18.76177             17.56937
935.28235   902.77647   340.00000  24.41526             18.45908
939.73659   778.94634   205.00000  19.80435             13.24873
938.52000   1090.44500  200.00000  16.32596             15.87855
941.14762   422.44762   210.00000  17.63638             15.26882
942.65414   1067.85714  266.00000  21.93545             15.61839
946.25000   1201.13462  208.00000  19.89682             13.52703
951.43810   756.74286   210.00000  21.80597             12.51854
951.80513   937.18974   195.00000  23.10574             10.79401
954.69295   441.34855   241.00000  18.90368             16.24589
961.01254   847.83699   319.00000  28.49415             14.45501
959.34409   764.59677   186.00000  21.58415             11.20267
958.29565   811.63043   230.00000  21.12526             14.02174
956.11570   1132.09091  121.00000  15.51118             10.29077
961.40909   1198.19318  176.00000  18.38620             12.23037
962.59735   974.69027   226.00000  19.40441             15.00484
964.77434   1113.65487  226.00000  19.69200             14.75043
964.89222   1100.84431  167.00000  17.21743             12.42720
964.80905   1138.59296  199.00000  18.10770             14.20781
968.38043   101.29891   184.00000  17.24008             13.66014
969.33564   942.76125   289.00000  25.23042             15.37328
973.88446   1372.72112  251.00000  23.81288             13.62556
974.15678   1154.24576  236.00000  20.97483             14.63170
975.68493   999.28767   219.00000  18.43844             15.29189
974.56311   1066.94175  103.00000  13.01612             10.18930
983.80258   821.79399   233.00000  23.33703             12.92313
979.23256   104.19380   129.00000  15.63318             10.55796
982.35938   1058.60938  128.00000  14.22348             11.48629
983.98020   1182.96040  202.00000  18.12336             14.29213
985.42268   792.03093   194.00000  18.46941             13.43663
987.21635   1070.43750  208.00000  19.85193             13.40827
987.86090   768.08647   266.00000  23.14792             15.18360
980.00000   1198.50000  20.00000   5.55127              4.60254
990.77536   852.42754   276.00000  24.83652             14.30702
995.47967   1354.71545  246.00000  21.93329             14.46958
997.93200   884.53200   250.00000  20.20793             15.91469
999.08678   1050.66529  242.00000  20.30720             15.20718
1000.14634  1204.48171  164.00000  16.23659             12.89831
1002.44373  105.15434   311.00000  25.64887             15.51369
1017.69915  830.52119   236.00000  18.70050             16.67299
1025.86667  1208.18413  315.00000  30.09761             13.89207
1022.54028  97.51659    211.00000  21.25201             12.64610
1026.54201  1048.91870  369.00000  25.02496             18.83812
1025.19167  919.18750   240.00000  19.60270             15.60717
1035.60150  1332.45865  266.00000  27.11211             12.79878
1028.28814  900.62712   59.00000   10.38239             7.29815
1034.69397  940.74138   232.00000  18.58840             15.96028
1034.42268  1358.87113  194.00000  18.29327             13.66933
1037.07724  86.95122    246.00000  20.26205             15.53957
1037.14943  1069.18008  261.00000  20.68511             16.31494
1039.61397  807.14706   272.00000  23.23519             15.43244
1044.72872  62.09574    188.00000  18.52390             12.96675
1051.04982  38.30249    281.00000  24.18491             14.86760
1057.08850  838.42035   226.00000  19.52197             15.88934
1052.86842  955.52632   38.00000   7.69654              6.32883
1065.70470  1079.05705  298.00000  28.07052             13.87654
1064.90323  861.84588   279.00000  25.03799             15.33599
1067.43385  989.61846   325.00000  21.55627             19.27403
1070.97696  845.82028   217.00000  17.93563             15.61755
1078.12653  1324.70204  245.00000  20.57688             15.30082
1084.49115  1340.59735  226.00000  17.82241             16.22017
1088.57377  935.83607   305.00000  22.81330             17.48724
1091.30568  992.55022   229.00000  26.64189             11.09042
1094.72430  53.96262    214.00000  17.95926             15.20091
1094.42361  1028.03819  288.00000  21.07892             17.54220
1096.12044  70.02555    274.00000  19.58391             17.93728
1103.66667  985.33333   225.00000  20.54236             14.00390
1106.97727  1325.81818  220.00000  18.12130             15.50218
1110.66520  1040.66520  227.00000  22.57312             13.24238
1112.37198  996.22705   207.00000  22.47576             11.92952
1130.90323  1029.35945  217.00000  18.74671             14.85919
1130.66851  333.74033   181.00000  15.74841             14.68420
1128.51163  313.03488   86.00000   11.45824             9.69002
1139.40449  1017.15169  178.00000  17.13894             13.45449
1140.69748  1069.14286  238.00000  19.93358             15.30160
1140.34632  1315.04762  231.00000  17.99380             16.36434
1141.50251  39.37186    199.00000  16.67618             15.21021
1140.00800  323.88800   125.00000  13.41913             11.92297
1146.98867  358.21813   353.00000  25.69168             17.92087
1152.09489  26.78467    274.00000  19.74287             17.73253
1155.24779  1002.25664  226.00000  18.31679             15.77773
1157.05530  43.25346    217.00000  17.90612             15.59833
1161.23171  1322.04065  246.00000  24.12974             13.11705
1172.11600  1038.09600  250.00000  18.02429             17.82970
1187.57480  401.67717   127.00000  13.40969             12.20034
1190.72376  368.58011   181.00000  16.46583             14.25015
1203.10915  699.12324   284.00000  20.78928             17.54006
1202.21348  342.32865   356.00000  24.62712             18.86892
1204.57021  302.68085   235.00000  21.95908             13.65925
1204.13369  379.45989   187.00000  16.81265             14.22345
1217.91284  283.52294   218.00000  19.15723             14.55735
1215.48649  376.59459   37.00000   7.61056              6.17652
1225.90840  334.64122   131.00000  13.99540             12.25352
1235.67553  326.58245   376.00000  32.66213             15.87948
1239.69597  286.34066   273.00000  20.22300             17.24979
1237.79798  362.32323   198.00000  19.12232             13.21815
1244.12903  538.71774   248.00000  22.27011             14.30715
1244.86624  350.11465   157.00000  15.73418             12.78893
1249.69959  479.80658   243.00000  19.75114             15.75579
1256.30466  707.08961   279.00000  21.66467             17.71366
1255.99167  577.91250   240.00000  18.83795             16.30976
1255.93088  438.56221   217.00000  22.74490             12.25559
1257.46774  527.90323   186.00000  16.68368             14.25061
1260.30233  411.95930   172.00000  16.89960             13.00029
1264.41549  370.96479   142.00000  15.16445             12.22516
1268.27465  391.90141   142.00000  14.35242             12.65236
1272.49407  519.70356   253.00000  21.29578             15.19076
1271.49291  267.82270   282.00000  20.69007             17.65666
1270.69091  422.20000   55.00000   8.65098              8.16707
1269.11538  429.50000   26.00000   6.34819              5.18382
1276.96970  380.70996   231.00000  18.17443             16.44302
1281.24227  591.79897   194.00000  19.43184             12.72198
1284.13333  302.92381   210.00000  17.43357             15.45740
1291.70722  466.82510   263.00000  20.02379             16.89828
1291.22115  530.90385   104.00000  13.22322             10.18599
1291.75490  397.63725   102.00000  14.55039             9.14180
1295.79710  506.00000   138.00000  16.40090             10.85495
1297.64706  520.90196   153.00000  17.29160             11.94010
1300.13889  401.91667   144.00000  15.93780             11.86077
1303.24227  251.45361   194.00000  17.29325             14.51238
1303.47926  265.86175   217.00000  18.48325             15.08597
1306.74105  459.35262   363.00000  28.50913             17.58637
1305.69767  537.30233   215.00000  16.98866             16.12611
1308.09314  292.48529   204.00000  16.71175             15.59621
1309.31897  592.98707   232.00000  18.73991             15.76812
1311.61053  485.66316   285.00000  20.85514             17.56890
1310.64039  717.25123   203.00000  17.23645             15.07562
1314.73810  401.82937   252.00000  20.51665             15.74133
1313.78378  522.13514   148.00000  15.37122             12.52388
1318.72887  303.11972   284.00000  22.30472             16.36799
1326.94667  416.69000   300.00000  19.89827             19.49416
1325.56017  529.59751   241.00000  18.46639             16.62855
1326.40191  712.24880   209.00000  17.53487             15.18739
1331.65972  451.67014   288.00000  23.90946             15.66381
1331.01695  634.21017   295.00000  23.32712             16.36041
1329.39791  659.43455   191.00000  17.01967             14.35749
1338.53873  261.24648   284.00000  20.26346             18.06877
1342.72683  594.36098   205.00000  16.98136             15.41186
1342.86920  709.47679   237.00000  19.10714             16.00902
1343.85795  667.85227   176.00000  17.95402             12.79841
1348.48617  524.30435   253.00000  22.25795             14.67433
1354.27636  1636.52000  275.00000  23.26405             15.47030
1356.31525  612.91525   295.00000  21.54798             17.64393
1358.71053  456.64474   228.00000  19.36770             15.13874
1356.19913  703.19481   231.00000  19.31599             15.57962
1355.76271  468.90678   118.00000  13.39561             11.31337
1362.02597  500.29004   231.00000  18.22163             16.22730
1362.21693  644.35450   189.00000  18.45258             13.10026
1364.51575  666.24016   254.00000  20.79448             15.76455
1366.94257  519.85473   296.00000  21.76167             17.49397
1369.72589  302.16751   197.00000  18.68269             13.43101
1368.44516  776.19355   155.00000  17.38006             11.61183
1370.51323  835.14815   189.00000  16.40729             14.69018
1373.95023  621.25339   221.00000  18.00491             15.68599
1375.07407  736.15741   216.00000  18.58559             14.92757
1371.14706  481.67647   34.00000   7.39709              5.87847
1376.84528  792.41509   265.00000  19.78614             17.11390
1377.45029  566.03509   171.00000  15.74948             13.83993
1388.48424  298.16046   349.00000  24.67860             18.22324
1386.54286  644.05714   280.00000  21.89230             16.31003
1384.78500  836.94000   200.00000  17.66097             14.43374
1392.00901  558.89640   222.00000  17.05041             16.62497
1393.62452  714.77778   261.00000  20.36914             16.33412
1393.42857  583.25974   231.00000  18.36035             16.10371
1403.01282  567.35256   156.00000  15.43306             13.06134
1406.77542  550.08475   236.00000  20.04363             15.02457
1415.06207  596.63793   290.00000  20.25297             18.35332
1416.21345  955.56433   342.00000  26.60817             16.74315
1421.59722  913.83333   216.00000  19.09911             14.54873
1425.69697  689.63636   231.00000  19.33624             15.34188
1427.09091  621.75379   264.00000  23.84462             14.31565
1427.54645  555.56831   183.00000  17.54870             13.43349
1430.22047  572.73228   254.00000  23.23406             14.26362
1433.21121  517.46552   232.00000  19.70926             15.02132
1435.73264  134.99306   288.00000  23.24666             16.41657
1439.86335  983.63354   322.00000  28.24461             14.67132
1439.02034  274.28475   295.00000  22.09309             17.02247
1437.49398  631.36145   166.00000  16.58143             12.85794
1439.53691  668.11074   298.00000  24.15927             15.77796
1445.86695  639.36052   233.00000  27.93803             10.82382
1452.47135  155.79688   384.00000  25.78217             19.02252
1453.22901  486.81298   262.00000  21.85039             15.54314
1456.59164  572.90032   311.00000  26.10526             15.28749
1453.27869  187.70902   244.00000  19.51578             15.93262
1456.37433  607.55615   187.00000  16.72010             14.25386
1462.65665  527.72103   233.00000  17.82438             16.69884
1467.60000  484.20000   145.00000  15.00596             12.33695
1469.71963  121.48131   214.00000  21.61644             12.67526
1471.77348  550.13260   181.00000  15.98930             14.49375
1470.57848  654.96861   223.00000  19.31856             14.86944
1473.19565  515.07246   276.00000  23.22344             15.88468
1474.04615  459.19615   260.00000  20.65765             16.18345
1484.26540  675.22275   211.00000  22.88160             12.13235
1481.65574  436.49727   183.00000  17.49693             13.36026
1483.66518  663.27232   224.00000  19.11072             15.07411
1484.76364  120.58182   220.00000  17.36971             16.21844
1488.02439  592.94715   246.00000  20.55474             15.44204
1490.72727  546.05263   209.00000  16.89217             15.95820
1492.37500  515.85714   168.00000  16.11572             13.34140
1486.88462  570.30769   26.00000   6.16606              5.34412
1488.55556  1225.27778  18.00000   5.15413              4.63512
1497.35321  474.29358   218.00000  19.29548             14.46340
1500.12245  505.71684   392.00000  32.95760             16.84952
1497.33793  633.48966   145.00000  15.77362             11.82801
1499.71429  643.84874   119.00000  13.04499             11.84726
1505.55629  536.68874   151.00000  15.54057             12.40550
1512.93033  612.05738   244.00000  23.26384             13.62162
1513.95588  1212.43382  272.00000  25.69888             13.51890
1511.28191  570.44681   188.00000  18.19988             13.30657
1515.40752  587.01254   319.00000  25.86241             16.31583
1516.89189  1231.30405  296.00000  21.89151             17.34743
1520.19824  624.62555   227.00000  18.57336             15.73121
1523.11872  458.71233   219.00000  19.28066             14.49433
1529.17857  415.76190   336.00000  22.32256             19.55701
1527.99574  504.02128   235.00000  18.94646             15.80636
1529.53153  476.60811   222.00000  19.28762             14.76913
1538.01003  884.91973   299.00000  29.59889             13.03461
1541.02612  518.88806   268.00000  19.84599             17.39832
1540.93822  457.06950   259.00000  22.34679             14.99563
1541.68664  390.70507   217.00000  17.67192             15.77793
1542.04762  428.80556   252.00000  19.96787             16.13657
1544.11207  405.01724   232.00000  19.24097             15.53839
1544.10949  550.18978   274.00000  19.71865             18.35930
1557.32484  476.23567   314.00000  22.39750             17.92921
1558.64246  1193.25698  179.00000  16.70552             14.00129
1572.52922  360.06169   308.00000  21.05847             18.79759
1570.81046  1196.28105  153.00000  16.47772             11.84674
1583.45570  1059.92722  316.00000  21.55421             18.90707
1583.02419  401.31452   248.00000  23.33670             13.85175
1581.53398  449.72816   206.00000  16.91275             15.61990
1587.37234  432.27305   282.00000  25.88137             14.01491
1592.28988  507.26930   583.00000  35.32979             21.64402
1590.53103  1199.41724  290.00000  20.69892             17.97034
1590.29958  589.20675   237.00000  18.37667             16.46249
1592.17972  389.86636   217.00000  18.73461             14.79039
1596.27799  880.68340   259.00000  23.35878             14.14234
1596.65056  758.52788   269.00000  21.43289             16.08353
1595.54037  486.82609   161.00000  16.36822             12.65377
1602.28251  603.31839   223.00000  19.56134             14.68709
1601.63000  463.58667   300.00000  24.98763             15.53923
1607.78841  1033.83478  345.00000  25.20401             18.60495
1606.55172  533.28879   232.00000  18.09816             16.32356
1608.41241  415.26277   274.00000  23.88984             14.67074
1612.07818  1247.43648  307.00000  29.80631             13.23926
1611.50842  384.07071   297.00000  25.73090             14.99881
1606.77483  818.98013   151.00000  15.42524             12.48785
1608.54510  890.43529   255.00000  23.20134             14.05139
1615.01020  756.08673   196.00000  16.34170             15.41833
1618.69504  960.20567   282.00000  21.59288             16.89709
1622.56786  337.40000   280.00000  22.81215             15.71353
1623.19474  815.65263   190.00000  18.19802             13.35586
1626.16304  518.61685   368.00000  29.82804             15.81663
1629.90047  636.31280   211.00000  19.72514             13.68918
1626.37500  933.60000   40.00000   8.50689              5.93488
1635.53672  25.77966    354.00000  24.29633             18.59978
1634.10502  558.54338   219.00000  17.51017             16.05527
1635.34507  709.18662   284.00000  21.99674             16.62653
1633.74747  839.15657   198.00000  16.80500             15.00093
1635.15854  1046.15244  164.00000  14.98355             13.99607
1635.11258  1059.58940  151.00000  15.62274             12.34479
1637.79098  1235.53279  244.00000  21.50120             14.59616
1641.57009  690.94393   214.00000  22.12946             12.39194
1643.43478  1096.31401  207.00000  17.41262             15.23996
1647.73244  576.36455   299.00000  20.91728             18.55729
1646.10204  943.89286   196.00000  17.00945             15.19538
1648.34298  827.19008   242.00000  18.05442             17.11722
1656.72593  859.83333   270.00000  30.59675             11.46331
1653.84959  541.19106   246.00000  19.84609             15.95063
1653.50862  1039.22414  348.00000  22.21332             20.16866
1652.30827  1105.31579  133.00000  14.55960             11.75692
1653.37952  1019.74096  166.00000  16.40958             12.91765
1654.99539  36.37788    217.00000  17.04936             16.45360
1656.54959  391.71901   242.00000  20.26209             15.34872
1656.18378  406.04324   185.00000  19.36930             12.18774
1661.29082  1080.64796  196.00000  16.82192             15.14735
1660.51053  1147.95789  190.00000  18.52180             13.25170
1664.26103  675.65809   272.00000  21.14779             16.50094
1663.83333  556.90556   180.00000  15.78561             14.67593
1667.57436  1114.94872  195.00000  18.20912             13.69596
1672.36111  645.41667   252.00000  20.45242             15.84276
1671.50459  711.51376   218.00000  18.66232             14.93622
1675.67949  593.15385   234.00000  20.81402             14.42583
1673.69787  751.56170   235.00000  21.19811             14.17083
1679.56587  90.78743    334.00000  25.65424             18.30060
1675.17708  1584.48958  96.00000   12.71919             9.65499
1678.37879  62.17172    198.00000  17.68828             14.30666
1680.10927  1159.75497  302.00000  26.85211             14.54604
1680.33225  1510.52443  307.00000  25.41474             15.44526
1683.58173  817.65865   208.00000  16.34862             16.30189
1690.16000  1591.97600  250.00000  18.88024             16.91336
1692.94056  623.36014   286.00000  20.33313             17.95679
1695.85116  797.95814   215.00000  21.03306             13.01234
1696.48333  936.61111   180.00000  19.68689             11.66009
1701.06926  957.40260   231.00000  20.67281             14.35329
1703.47959  599.96939   294.00000  24.51006             15.40288
1703.93515  1516.12287  293.00000  20.05305             18.78992
1703.18137  1625.05392  204.00000  18.52877             14.09610
1708.25824  96.07143    364.00000  24.17204             19.29451
1708.59402  1591.85897  234.00000  18.41351             16.29653
1710.22635  1554.45270  296.00000  22.07286             17.45073
1709.26768  1607.48990  198.00000  17.33169             14.68043
1711.73193  66.59639    332.00000  24.35799             17.49332
1708.75820  1495.61885  244.00000  20.51779             15.15893
1711.20522  622.98507   268.00000  20.49110             16.68420
1719.13087  811.11745   298.00000  25.30042             15.01090
1726.60333  914.74000   300.00000  26.10164             15.36962
1728.80519  426.96970   231.00000  19.29709             15.32972
1733.46966  543.55937   379.00000  26.61505             18.55181
1731.39303  363.55224   201.00000  18.44447             13.94205
1732.40000  1577.10588  255.00000  21.77141             14.98980
1740.56693  830.07480   254.00000  26.43009             12.37336
1737.92405  805.33544   158.00000  17.02164             11.92876
1739.64444  930.81111   270.00000  22.13871             15.86689
1743.31905  1542.70952  210.00000  17.52131             15.30783
1749.89412  1480.97255  255.00000  24.94304             13.45516
1749.12917  424.90833   240.00000  21.52370             14.25935
1753.65769  454.13077   260.00000  19.22004             17.31726
1753.89318  347.23442   337.00000  33.32174             13.04842
1756.98738  1522.82965  317.00000  22.59067             18.01180
1757.73913  904.15217   138.00000  15.22052             11.69818
1771.74522  905.80255   157.00000  15.21216             13.21639
1780.72093  771.69767   258.00000  21.38877             15.72924
1785.46847  1539.53153  222.00000  23.44270             12.19486
1789.78731  1449.09328  268.00000  22.10108             15.56475
1789.72381  1500.70476  210.00000  17.71509             15.15565
1792.87649  798.84861   251.00000  21.31844             15.05545
1794.06276  914.79916   239.00000  21.38322             14.32759
1796.55042  1558.06303  238.00000  23.13562             13.15711
1799.25000  711.95755   212.00000  17.84524             15.13928
1803.36782  172.84483   174.00000  18.89468             11.75535
1805.62705  679.99590   244.00000  20.59514             15.13138
1810.62977  783.73664   262.00000  21.06713             16.16007
1809.09589  856.50685   146.00000  15.71214             11.92878
1811.32090  183.49254   134.00000  16.40558             10.55262
1814.99083  947.02294   218.00000  21.14289             13.45381
1816.06989  1074.82258  186.00000  17.34219             13.81600
1818.50397  1436.11905  252.00000  22.60469             14.30644
1818.36538  937.21154   104.00000  13.33190             10.40824
1820.67667  1015.32667  300.00000  26.11901             14.83837
1823.65217  847.76812   138.00000  17.05679             10.70596
1826.19672  859.02459   244.00000  19.64308             16.11065
1826.90099  1618.39934  303.00000  24.72045             15.77564
1830.93657  784.52985   268.00000  25.15948             13.64353
1827.23214  965.40476   168.00000  16.92317             12.69154
1832.08070  1079.41053  285.00000  24.94416             15.56420
1836.80879  653.26357   387.00000  30.49710             16.63697
1829.92655  933.42373   177.00000  17.20129             13.19492
1832.71078  988.78922   204.00000  18.19928             14.43008
1838.04059  1059.52768  271.00000  21.35804             16.37167
1835.77368  1030.35789  190.00000  18.43241             13.26129
1841.19718  919.33803   213.00000  18.02798             15.14304
1842.92982  1492.15088  285.00000  21.00236             17.36951
1843.41633  1013.62857  245.00000  18.49037             16.89243
1845.48592  931.30986   142.00000  14.59349             12.45037
1847.55505  226.57798   218.00000  17.90513             15.70116
1843.25000  998.20833   24.00000   6.47994              4.72397
1850.45865  1038.48120  133.00000  15.22121             11.20870
1853.94595  201.37838   222.00000  17.88288             15.88785
1855.44196  1544.93750  224.00000  21.82045             13.19774
1854.32836  1556.46269  134.00000  15.44358             11.12959
1857.09036  1028.22892  166.00000  17.20904             12.45088
1862.82063  564.20179   223.00000  21.60350             13.46234
1861.54054  765.38739   222.00000  21.87090             13.01117
1868.70764  519.94684   301.00000  22.12253             17.44088
1867.87560  576.07177   209.00000  20.42113             13.10489
1870.09559  214.46324   136.00000  15.07085             11.85681
1871.52055  1651.12329  219.00000  20.62676             13.58699
1880.20253  759.67722   158.00000  16.74624             12.09559
1881.41126  1049.30736  231.00000  19.06547             15.48342
1885.23792  992.88104   269.00000  21.32380             16.11529
1890.23836  1027.99178  365.00000  22.80483             20.83345
1894.75502  1551.83936  249.00000  18.77196             17.01899
1897.79693  1675.42146  261.00000  22.37959             14.89236
1910.68498  1566.93407  273.00000  21.68254             16.10603
1918.83858  1007.56299  254.00000  24.56629             13.30981
1919.54397  709.37134   307.00000  26.81217             15.80677
1935.44186  1595.17829  258.00000  22.28928             15.00869
1950.62738  1002.52471  263.00000  20.81934             16.24587
1956.35540  1038.58885  287.00000  25.06735             14.94391
1956.24299  1694.33645  107.00000  13.09781             10.89842
1961.65778  662.77778   225.00000  19.74809             14.55068
1961.15041  1590.05691  246.00000  22.54565             14.01377
1982.14337  649.84946   279.00000  22.97200             15.63738
1982.83539  1061.48148  243.00000  19.08145             16.27396
1999.66010  1631.78818  203.00000  20.45519             13.32520
2002.22927  626.77073   205.00000  18.28043             14.31859
2001.57333  647.14667   150.00000  16.77850             11.50182
2023.31250  1684.96875  160.00000  16.92791             12.33563
2023.85892  556.86722   241.00000  19.59591             15.67080
2025.96667  587.25714   210.00000  18.60833             14.40659
2033.68148  1457.32593  270.00000  22.39264             15.60301
2038.78652  1435.83146  89.00000   12.69134             9.10822
2040.92045  562.55682   176.00000  16.04280             14.08814
2042.22131  618.02459   122.00000  13.94149             11.33638
2043.47143  1420.40000  70.00000   10.30864             9.08777