# Filename: Nuclei_416_ctrl_60x_005.npz
# Voxel size (nm): (108, 108)
# Area quantity: voxels
# Num nuclei detected: 990
Y           X           AREA       MAJOR_AXIS_LENGTH    MINOR_AXIS_LENGTH
20.21341    750.69512   164.00000  14.82958             14.12883
38.51381    629.20994   181.00000  18.90895             12.62977
42.16667    773.26000   150.00000  15.61765             12.36350
65.15169    525.44382   178.00000  16.60667             13.82645
64.89320    590.40777   103.00000  13.68672             9.66053
70.65657    707.96970   99.00000   13.07650             9.72513
77.52222    650.35556   180.00000  15.48976             14.92176
79.69748    794.98319   119.00000  15.80726             10.45308
91.49462    618.29032   186.00000  20.56645             11.89086
95.26736    780.62153   288.00000  22.51612             16.38529
98.25316    560.79747   158.00000  18.14853             11.46871
105.08672   534.44715   369.00000  24.68504             19.16556
103.62500   386.49265   136.00000  15.46505             11.37045
117.12778   653.86667   180.00000  15.41546             14.89356
119.26087   781.89372   207.00000  20.10600             13.23902
117.82292   113.79167   96.00000   11.19489             11.10457
120.66901   559.26056   142.00000  14.22723             12.88903
136.71967   688.88285   239.00000  21.93306             13.89770
140.55849   1134.82264  265.00000  21.33673             15.95812
143.40351   650.67836   171.00000  17.78359             12.76868
147.30201   422.16443   298.00000  23.80013             16.26906
149.52964   624.26482   253.00000  21.66621             15.46437
150.84906   355.62893   159.00000  16.18115             12.55149
152.88028   557.63380   142.00000  14.60514             12.41896
154.41803   149.59836   122.00000  14.51166             10.72619
163.10714   212.76786   168.00000  16.02586             13.56930
173.85612   1136.98201  278.00000  28.83422             12.43196
168.58407   534.64602   113.00000  13.57344             10.82841
176.69828   562.21552   116.00000  13.37911             11.20528
183.72727   683.62500   176.00000  17.58300             13.59605
183.66667   195.94558   147.00000  15.88279             11.79675
193.86400   777.02800   250.00000  21.06486             15.15979
194.93182   1770.07576  132.00000  15.29440             11.07441
200.05195   807.90909   231.00000  20.38451             14.86744
201.13953   292.89302   215.00000  17.13842             16.16063
214.60593   545.98729   236.00000  20.59611             15.17886
216.41833   778.90040   251.00000  21.53638             14.95700
218.42778   346.40556   180.00000  16.07388             14.30710
217.78481   158.20886   158.00000  15.51161             12.99958
217.95429   184.07429   175.00000  17.80044             12.57684
225.76899   834.94304   316.00000  25.08677             16.25980
222.67500   109.30833   120.00000  14.57670             10.61016
227.36771   253.73094   223.00000  19.44777             14.64761
224.24638   290.26087   138.00000  15.00344             11.80870
228.39527   660.51014   296.00000  21.40582             17.74878
231.67380   488.17112   187.00000  17.48019             13.68376
233.98969   341.31959   194.00000  18.17630             13.62331
239.25893   791.89286   112.00000  12.49928             11.49274
248.83146   587.31461   267.00000  21.92724             15.68142
243.87611   1443.52212  113.00000  13.86609             10.55329
244.47899   416.38655   119.00000  13.03130             11.67008
258.33113   858.29801   302.00000  25.33967             15.32768
254.89683   258.98413   126.00000  13.94620             12.90732
257.47368   629.07566   304.00000  20.13382             19.45170
256.28571   421.18367   147.00000  13.93022             13.47085
255.65753   109.89041   73.00000   10.38025             9.14965
264.62857   281.19592   245.00000  18.85919             16.79964
261.96552   463.97414   116.00000  13.84002             10.82828
264.15730   536.25843   178.00000  15.90011             14.28807
268.01128   796.52632   266.00000  25.54293             13.98699
270.49187   565.65447   246.00000  20.08719             15.79416
269.09659   1715.97727  176.00000  19.60986             11.54145
272.32423   502.67235   293.00000  20.79979             18.07407
278.44898   1412.48639  294.00000  26.28877             14.25754
278.83071   298.44094   254.00000  20.80181             15.56289
286.11152   582.84387   269.00000  19.37135             17.83397
290.26994   1125.91411  326.00000  23.71236             17.62802
287.89723   211.24506   253.00000  19.19793             16.82135
288.45638   317.47651   149.00000  14.62005             13.07336
294.22868   274.23256   258.00000  23.01356             14.41225
291.74257   560.87789   303.00000  22.03971             17.99088
294.33818   253.24364   275.00000  20.33390             17.32975
296.94672   794.91393   244.00000  24.00566             12.95479
299.79646   1255.25221  226.00000  21.49444             13.52378
303.26053   904.72105   380.00000  27.14649             18.06597
300.92657   431.58042   286.00000  26.33241             14.12167
303.98834   509.09038   343.00000  24.28573             18.18132
303.63981   1301.53555  211.00000  20.17110             13.40429
305.04040   1273.02020  198.00000  22.85474             11.19037
310.46565   484.58397   262.00000  18.97794             17.68803
310.49275   54.94686    207.00000  18.24793             14.52670
317.75000   809.82456   228.00000  25.46304             11.42024
318.46512   1592.13023  215.00000  18.08278             15.17882
319.98680   1411.76898  303.00000  26.21531             14.99680
322.27273   1675.64935  154.00000  16.23370             12.13390
327.14545   907.01091   275.00000  22.04731             15.99014
329.15353   116.07054   241.00000  21.18393             14.80987
328.04682   959.32107   299.00000  23.04511             16.70043
329.53529   1217.54118  170.00000  17.38233             12.50772
331.94656   842.76718   262.00000  21.90293             15.38579
333.01739   1361.92174  230.00000  19.52789             15.00558
333.86607   1480.40179  336.00000  23.10221             18.63405
336.06545   1539.48000  275.00000  25.31314             13.88678
338.16432   435.46948   213.00000  19.33095             14.05986
337.99556   393.68444   225.00000  18.91049             15.29269
339.16431   882.24646   353.00000  26.02478             18.44657
338.38172   309.56989   186.00000  16.62687             14.70492
339.07738   354.12500   168.00000  15.78244             13.63809
339.64216   1253.76471  204.00000  18.57232             14.05231
341.28000   489.67556   225.00000  22.20759             13.14905
342.89706   853.58088   272.00000  22.31084             15.85447
341.42587   1008.37855  317.00000  26.77417             15.81497
344.84420   1125.56884  276.00000  25.45630             13.85974
343.78704   231.33333   216.00000  17.68485             15.81380
342.20408   418.74150   147.00000  15.59456             12.19230
347.80712   1089.35905  337.00000  26.40997             16.79226
345.58824   160.58403   238.00000  19.00260             16.20898
352.58086   1327.55116  303.00000  27.73069             14.04181
351.75000   117.56140   228.00000  20.94590             13.88924
352.35593   1201.86441  295.00000  26.57355             14.53365
351.58470   1636.75410  183.00000  16.79451             13.97066
354.64286   1044.64626  294.00000  21.68574             17.39102
354.97651   1171.49664  298.00000  20.97186             18.28001
356.42157   330.79412   204.00000  19.75335             13.26684
360.50847   413.45198   177.00000  17.68796             12.87232
371.66512   524.38605   215.00000  22.52013             12.30295
371.68085   1189.00000  188.00000  18.37099             13.03777
372.61702   326.69362   235.00000  20.78365             14.60063
373.33784   1619.95270  148.00000  15.97402             11.83426
375.73481   901.12155   181.00000  16.88538             13.86030
378.89668   276.40590   271.00000  24.45699             14.36146
392.99015   374.00000   203.00000  17.40867             14.87387
395.58824   349.47843   255.00000  21.66093             15.26875
400.66187   949.01799   278.00000  19.70651             18.10537
409.30588   383.33333   255.00000  21.30859             15.49049
407.41985   1222.44656  262.00000  24.58852             13.97560
411.57203   363.05508   236.00000  19.02325             15.85158
416.91373   1248.65882  255.00000  21.85736             15.29295
427.96029   908.68953   277.00000  28.12779             12.70536
432.86294   894.60914   197.00000  20.17803             12.51072
448.28400   1254.20000  250.00000  19.83074             16.10004
451.75972   405.52650   283.00000  24.51893             14.73608
453.65975   519.06639   241.00000  19.18612             16.12898
456.44800   328.90800   250.00000  19.03264             16.79369
461.56970   1301.43030  165.00000  14.81773             14.23826
477.93080   498.87889   289.00000  33.16080             11.77684
472.38934   904.72951   244.00000  18.50123             16.92442
470.48980   882.42857   49.00000   9.43592              6.55453
474.79412   1355.78571  238.00000  18.22157             16.65488
475.05970   326.91045   201.00000  17.90405             14.42137
475.69118   948.72059   68.00000   12.53378             6.93753
486.44512   940.54268   328.00000  24.82223             16.85733
490.61386   728.73927   303.00000  26.84506             14.57115
490.45907   1455.66548  281.00000  23.35965             15.34040
489.77632   1414.06250  304.00000  22.32552             17.52661
488.92718   1334.90777  206.00000  19.30437             13.63939
506.60209   869.90052   191.00000  19.21027             12.66076
516.64286   908.86364   154.00000  14.65675             13.45255
521.13393   486.91071   224.00000  18.98839             15.13834
522.12651   229.64458   166.00000  15.31392             13.81205
526.63745   871.05976   251.00000  24.42965             15.25704
530.47020   826.14570   151.00000  16.66032             11.80359
540.76824   851.94421   233.00000  21.55727             13.89682
545.97473   733.85560   277.00000  25.95094             13.74322
545.75294   909.00000   340.00000  25.01444             17.58161
548.97010   481.53156   301.00000  22.21429             17.67960
561.80569   869.92891   211.00000  18.37413             14.71822
561.66190   889.59524   210.00000  17.94075             14.92340
565.70238   827.37698   252.00000  22.40722             14.77890
567.60870   903.62609   230.00000  19.88113             15.02410
568.01587   941.65079   63.00000   11.15780             7.18193
581.46473   866.93776   241.00000  26.55506             11.79177
584.46023   901.07386   176.00000  18.36188             12.32520
591.32143   936.52381   84.00000   12.55142             8.57681
596.60119   829.89881   168.00000  17.37700             12.48610
602.46823   857.02341   299.00000  29.21679             13.28311
600.58125   737.95000   320.00000  24.36322             17.32882
601.97598   955.75976   333.00000  24.49329             17.40764
600.54369   900.50485   206.00000  17.72133             14.89710
615.96786   256.50000   280.00000  22.33646             16.04219
614.74586   436.16022   181.00000  17.78380             13.09188
624.16327   855.24490   98.00000   14.89110             8.46913
635.75986   279.63082   279.00000  23.52904             15.20650
634.57576   842.46212   132.00000  15.33272             11.05108
647.49583   875.80833   240.00000  19.60007             15.64766
652.76842   847.85789   190.00000  17.94940             13.67618
665.64526   907.84709   327.00000  24.48721             17.39260
662.04103   299.87179   195.00000  18.49163             13.52095
663.61809   236.62312   199.00000  17.22271             14.83301
665.13198   891.39086   197.00000  18.80528             13.44376
669.25970   734.61194   335.00000  24.29819             17.90778
668.16949   415.77966   177.00000  17.52778             13.06625
679.96405   855.65359   306.00000  29.22612             13.70074
673.05806   310.40645   155.00000  16.64977             12.25263
676.72222   265.80556   252.00000  18.36626             17.64058
679.97987   348.02349   298.00000  22.09179             17.32567
684.11364   314.88636   132.00000  13.96146             12.23251
687.85156   907.82031   256.00000  22.85860             14.73059
695.20297   232.28713   202.00000  20.91729             12.73078
696.76286   833.63714   350.00000  27.94191             16.41646
695.53881   890.04110   219.00000  19.57381             14.67307
696.92308   863.90769   130.00000  14.23613             11.81108
708.69674   403.71679   399.00000  23.32368             21.81485
716.44444   1144.98413  252.00000  19.27922             16.99313
716.79377   252.23346   257.00000  20.73630             15.83038
721.58242   948.20879   182.00000  20.40087             11.55248
730.74684   746.90823   316.00000  23.26851             17.96053
732.60905   902.47325   243.00000  19.23328             16.16437
734.33333   985.05714   210.00000  17.52066             15.37085
735.78924   958.09417   223.00000  18.30054             15.74303
741.94313   201.33649   211.00000  18.45643             14.72719
743.16818   338.44545   220.00000  19.32077             14.51859
747.55776   1007.31353  303.00000  23.70091             17.04218
745.64444   391.55556   180.00000  16.41032             14.15495
748.87368   460.66667   285.00000  24.95499             14.70558
750.97945   821.16781   292.00000  24.31362             15.74128
749.20089   680.95089   224.00000  20.23157             14.12694
753.17895   744.21404   285.00000  31.09392             13.37423
754.53571   1156.93929  280.00000  22.62939             16.14231
759.33121   274.50955   314.00000  28.99708             14.56412
765.45985   789.72993   274.00000  26.16256             13.64484
763.60190   900.24645   211.00000  19.56281             13.88604
767.78039   767.31373   255.00000  20.27523             16.03708
771.42453   355.18239   318.00000  26.24614             15.59555
767.69549   998.25940   266.00000  18.91710             18.00596
767.31875   679.71563   320.00000  24.96927             16.46409
774.26027   1023.66096  292.00000  20.02041             18.84435
779.69597   620.51648   273.00000  21.01076             16.76848
780.70326   515.94955   337.00000  29.49311             14.64821
776.82353   272.39216   51.00000   8.55226              7.56527
785.09635   373.69767   301.00000  24.01913             16.20535
782.96226   578.34340   265.00000  19.22528             17.61249
785.33484   784.06335   221.00000  25.67956             11.26182
783.55782   795.40136   147.00000  15.65245             12.11576
791.33610   202.42739   241.00000  19.19825             16.05619
797.53639   707.85445   371.00000  28.43428             16.82138
794.85000   1436.35000  100.00000  11.99870             10.64102
801.07942   1190.99639  277.00000  22.55353             15.76917
798.18868   797.20755   53.00000   11.11877             6.10141
801.39333   889.16667   150.00000  14.96326             12.77319
806.32051   1043.77778  234.00000  20.24939             14.79803
811.50612   374.88571   245.00000  28.55422             11.15412
808.03980   1172.17413  201.00000  18.31564             14.16980
812.48184   1221.36077  413.00000  26.63412             21.21682
809.67980   1286.15271  203.00000  18.35912             14.08780
805.63636   905.12121   33.00000   6.82268              6.19459
814.43446   552.95880   267.00000  19.31891             17.68647
808.06122   1474.55102  49.00000   8.53500              7.26967
816.51642   402.82090   335.00000  21.95893             19.55806
819.80435   1202.53261  276.00000  24.96624             14.25643
819.17826   747.90435   230.00000  20.76158             14.24101
819.10976   1305.16463  164.00000  15.56610             13.51772
822.58716   484.85780   218.00000  17.69817             15.72642
821.36818   1802.78182  220.00000  19.10493             14.82498
824.44841   638.78175   252.00000  18.34616             17.58817
823.70588   452.50865   289.00000  23.69131             15.66455
828.50196   583.75294   255.00000  20.58123             15.85872
828.27308   1154.53846  260.00000  21.71199             15.83338
830.40000   707.52000   275.00000  21.20872             16.66881
828.92366   1293.42366  262.00000  23.52198             14.62076
829.74157   1244.60674  178.00000  16.83573             13.62513
829.91304   1257.87578  161.00000  14.94291             13.74637
834.13402   227.19931   291.00000  23.24187             16.09184
834.91611   1113.70470  298.00000  22.07469             17.87820
838.05705   1190.59396  298.00000  22.60450             17.44669
839.76208   920.60967   269.00000  19.18733             18.03954
837.76687   1022.73620  163.00000  19.02691             11.15067
839.74684   1037.78059  237.00000  20.96988             15.25660
839.00000   1089.47977  173.00000  17.33868             13.32083
843.49643   1781.71786  280.00000  23.21160             15.43666
846.68317   1081.11881  202.00000  20.77263             12.53955
846.33891   992.23849   239.00000  21.50757             14.47371
846.46893   711.96045   177.00000  19.89532             11.43294
849.99187   1048.11382  123.00000  14.73637             10.72328
851.58678   1495.48760  242.00000  21.00103             15.12124
851.53000   506.86500   200.00000  19.50907             13.19281
855.29483   728.93009   329.00000  27.42533             15.48366
855.75920   1142.06689  299.00000  21.48111             18.22961
856.89418   451.83069   189.00000  16.77046             14.50187
856.77778   553.66667   225.00000  19.30884             14.96651
860.97525   400.83911   404.00000  31.28672             16.81125
856.23944   1316.63380  71.00000   11.02136             8.54989
862.93175   850.40059   337.00000  35.73221             13.58992
862.31148   917.59016   244.00000  20.50472             15.46987
862.91007   697.41367   278.00000  25.73455             13.88399
863.20996   990.25979   281.00000  19.91615             18.22973
857.02439   1110.56098  41.00000   8.58489              6.12762
865.40942   1341.94565  276.00000  22.76303             15.71990
866.47967   227.75203   246.00000  21.55736             14.64197
864.71264   508.20690   174.00000  16.96364             13.09466
864.66667   1190.00556  180.00000  17.00229             13.55439
864.81651   1038.26606  218.00000  21.74579             12.79406
868.12069   1755.06897  290.00000  23.72256             15.67141
875.14074   1136.72593  270.00000  29.67789             11.81902
873.38889   663.29365   252.00000  19.51817             16.69912
872.75168   944.44295   298.00000  25.08400             15.28288
877.68458   489.67523   428.00000  26.20795             21.34090
876.63725   1055.79902  204.00000  19.68015             13.41856
877.92398   898.07018   342.00000  24.14972             18.24107
873.50000   1083.16667  60.00000   10.32225             7.44357
880.78327   1183.11407  263.00000  19.93291             17.09248
883.25228   267.25532   329.00000  24.66300             17.33797
880.93464   1042.39869  153.00000  18.32032             11.43564
882.29221   1209.29221  154.00000  14.61981             13.68463
884.60729   1506.44130  247.00000  18.38349             17.31941
884.42405   1007.70886  158.00000  14.49549             13.88658
887.80303   1218.57576  132.00000  17.14231             10.47239
884.58824   914.11765   17.00000   5.18190              4.04120
894.67589   962.24901   253.00000  18.85439             17.51987
895.97436   1341.08547  234.00000  21.49994             14.03236
899.03067   1673.99080  326.00000  24.09187             17.34903
901.00000   229.36726   226.00000  19.91579             14.46142
902.54930   1098.16549  284.00000  22.52208             16.13317
903.89506   1073.15741  324.00000  24.69211             17.02718
908.13819   763.79648   398.00000  30.38821             16.98389
905.20290   1159.00000  207.00000  18.93732             13.98911
903.14599   998.07299   137.00000  13.86924             12.58108
903.05263   642.63158   76.00000   13.60074             7.12028
915.64752   645.96867   383.00000  23.61491             21.77882
912.52394   974.54085   355.00000  33.96853             13.85871
914.47768   1238.75893  224.00000  23.64388             12.31841
919.94330   230.46392   194.00000  16.35504             15.37260
918.73054   1541.17964  167.00000  15.95621             13.37113
921.23656   283.11111   279.00000  19.86233             18.04595
922.20192   374.91346   208.00000  21.14363             12.59509
923.87402   1179.39764  254.00000  22.99505             14.18117
921.34802   1153.11454  227.00000  21.39276             13.56757
922.31937   360.57068   191.00000  16.37342             14.89932
923.61417   406.40551   254.00000  25.88133             12.62334
927.24479   941.82812   192.00000  20.28656             12.15281
930.83072   1358.42320  319.00000  27.20469             15.24401
930.47085   960.01794   223.00000  22.67153             12.80594
930.19926   1014.35424  271.00000  23.27090             15.75642
927.89677   1531.45806  155.00000  15.27415             13.10891
932.65354   1726.72441  254.00000  21.31621             15.31388
930.81481   1195.98413  189.00000  20.35691             12.17970
937.69828   233.34052   232.00000  20.71819             14.29962
936.69756   916.91220   205.00000  17.95555             14.79590
936.51240   398.62397   242.00000  22.65620             13.76912
938.85259   287.76892   251.00000  19.17074             17.25131
939.09326   1647.50777  193.00000  18.33046             13.47264
935.85714   2025.90476  84.00000   13.00832             8.45310
943.36123   1262.08370  227.00000  22.38611             13.22098
942.87783   1215.66968  221.00000  18.02878             15.65469
941.95322   1190.06433  171.00000  17.19602             13.07680
946.01762   214.82379   227.00000  19.90045             14.62418
945.92462   1017.48744  199.00000  18.61253             13.60730
949.51449   1068.86232  276.00000  22.14702             16.28505
949.39474   523.76692   266.00000  19.93429             17.26700
956.40483   181.80060   331.00000  24.82503             17.07741
952.56647   1273.81503  173.00000  17.73925             12.62012
954.88000   1150.58545  275.00000  20.75236             17.02842
952.35135   1337.03604  111.00000  13.77310             10.47431
954.09589   1582.56849  146.00000  14.36413             13.26537
960.17376   583.03901   282.00000  28.54355             13.62386
956.11240   1131.97674  258.00000  21.20487             15.60172
955.01026   1623.27692  195.00000  17.50712             14.26365
954.89062   1346.92188  128.00000  14.12036             11.67589
958.02655   892.58407   226.00000  19.66611             14.97566
959.00000   1988.12977  131.00000  15.03403             11.96553
961.71429   467.69643   280.00000  21.28912             16.78243
958.83908   573.86207   87.00000   11.62610             9.60006
958.44928   1574.11594  69.00000   10.44245             8.53146
963.61033   441.35681   213.00000  19.73973             13.76458
965.42500   970.80357   280.00000  23.42636             15.60352
970.92742   1105.59409  372.00000  25.28218             19.51411
964.83916   1593.30070  143.00000  14.30597             12.84318
967.82403   306.81545   233.00000  20.81771             14.29018
970.16304   770.91667   276.00000  21.40079             16.55268
967.96447   1773.64467  197.00000  15.92657             15.84376
968.05189   1319.09434  212.00000  18.37918             14.81653
969.28094   496.87291   299.00000  25.00748             15.63957
970.35407   1615.61722  209.00000  17.07915             15.62449
970.76687   223.17791   163.00000  16.67822             12.76189
975.97717   874.92237   219.00000  18.62030             15.10969
977.44554   1151.73762  202.00000  19.84338             13.40837
978.31739   1272.68696  230.00000  18.85636             15.63960
981.10247   190.00000   283.00000  19.61135             18.43230
980.86752   1583.51282  234.00000  21.73912             14.24987
979.84559   233.07353   136.00000  15.03055             11.68571
985.40996   465.33333   261.00000  20.61747             16.24150
988.06316   1203.39649  285.00000  29.75417             12.59008
990.19335   495.16616   331.00000  23.90353             17.97895
986.08917   562.59236   314.00000  25.66624             15.74516
989.99145   1538.64387  351.00000  23.23097             19.90550
987.63975   1606.98758  161.00000  15.04339             13.66830
985.83871   952.22581   31.00000   6.77049              5.87170
990.66834   1223.21106  199.00000  16.57573             15.34326
997.62083   219.53750   240.00000  26.67257             11.77220
995.82958   1413.47588  311.00000  22.78942             18.12358
993.92810   1663.28105  153.00000  14.61964             13.36973
997.50159   1006.28571  315.00000  22.99575             18.14537
993.66154   1678.02308  130.00000  13.08794             12.66017
995.48447   927.30435   161.00000  16.06745             13.24225
994.87013   1783.07143  154.00000  15.76557             12.49745
997.14056   1274.51004  249.00000  22.53945             14.24092
1000.06309  1360.68770  317.00000  29.42171             14.08472
994.38596   1473.24561  57.00000   10.58277             6.97037
997.57576   1289.20202  99.00000   13.42554             9.57163
1001.95620  983.40876   274.00000  19.66302             18.56231
1003.83043  1298.33043  230.00000  19.06703             15.77498
1002.40476  1152.30357  168.00000  17.05375             12.57463
1005.53307  1458.21012  257.00000  23.29551             14.08769
1011.09932  933.73973   292.00000  22.05677             17.12436
1007.52101  1180.62185  238.00000  21.32335             14.29560
1002.95238  1228.92857  42.00000   7.77423              6.81843
1011.07035  1327.40201  199.00000  17.93035             14.36979
1008.26400  1695.88800  125.00000  13.84869             11.57316
1011.10345  876.62069   290.00000  21.40282             17.42683
1013.77592  275.26421   299.00000  22.50390             17.06849
1014.08661  1828.93701  127.00000  14.46825             11.34698
1014.29121  1680.72527  182.00000  16.51738             14.08439
1016.66667  1026.17778  180.00000  17.51805             13.13820
1023.73121  1235.55581  439.00000  29.41395             19.36417
1023.10460  860.65690   239.00000  20.60063             14.91058
1021.61450  1100.92748  262.00000  22.18502             15.12153
1020.98469  958.64286   196.00000  16.58805             15.08940
1019.64615  1813.64615  130.00000  14.29570             11.63001
1025.92337  417.14943   261.00000  22.63256             14.85117
1027.31579  1252.95263  190.00000  20.94426             11.91731
1025.07636  1325.94545  275.00000  22.78022             16.31031
1028.97173  201.90813   283.00000  21.57846             16.79569
1034.37403  786.65714   385.00000  32.60800             15.50624
1026.98750  1759.01250  80.00000   11.45380             8.87724
1030.11905  236.69643   168.00000  16.03103             13.38336
1029.02703  1173.39382  259.00000  30.30640             11.17853
1029.95276  1744.77165  127.00000  13.95058             11.60672
1036.11321  1105.80503  159.00000  15.08298             13.47413
1038.47321  1205.40179  224.00000  18.25726             15.67321
1037.95628  1765.01639  183.00000  20.88883             11.21251
1044.00000  219.41315   213.00000  27.99555             9.93484
1042.82759  966.26108   203.00000  17.88401             14.98291
1044.03300  1262.12541  303.00000  22.19339             17.96411
1047.53199  914.00673   297.00000  26.07612             14.98120
1057.19383  874.61674   227.00000  22.75268             12.84398
1061.92157  1039.60000  255.00000  37.19476             9.31505
1056.43077  897.05641   195.00000  17.68343             14.14103
1052.82500  1755.75000  80.00000   11.55631             9.21747
1058.27139  1283.28024  339.00000  25.69876             17.12095
1054.59756  965.32927   82.00000   11.86234             9.12423
1058.22751  250.22222   189.00000  20.77416             11.61650
1060.59127  1145.54365  252.00000  19.62318             16.83266
1059.82158  1311.15353  241.00000  20.00945             15.39510
1065.46341  546.62749   451.00000  30.10175             19.69564
1060.27528  199.15730   178.00000  16.05653             14.16102
1065.70098  208.59804   204.00000  24.13905             11.52815
1058.40000  1739.45333  75.00000   11.63967             8.30762
1062.75309  930.67901   243.00000  18.98353             16.54417
1059.03676  1728.52941  136.00000  15.18748             11.53048
1064.21296  1108.40741  216.00000  20.77186             13.47564
1064.20388  393.04207   309.00000  25.54393             15.48249
1066.75362  1767.22464  138.00000  14.25491             12.39466
1067.86735  1756.75510  98.00000   12.13189             10.37975
1070.30726  1685.97765  179.00000  16.92167             13.73508
1069.52308  1732.81538  130.00000  13.93146             11.90245
1075.51042  2006.49479  192.00000  19.68911             12.44334
1071.01961  1080.25490  51.00000   9.11770              7.07787
1075.88235  1245.81373  204.00000  19.62416             13.30774
1075.32768  1312.81356  177.00000  19.57786             11.78975
1076.62121  1943.92424  198.00000  18.59147             13.64817
1074.15625  1063.62500  32.00000   6.91016              5.84030
1080.52874  1833.34483  174.00000  18.41750             12.12130
1076.38889  1741.11111  54.00000   9.37310              7.37677
1080.95853  853.41014   217.00000  19.20415             14.65117
1089.88791  943.05015   339.00000  27.09398             17.54554
1084.04762  223.41837   294.00000  27.09820             14.17842
1083.51724  1845.75172  145.00000  14.03242             13.22394
1090.35389  1204.57105  373.00000  27.92010             17.33297
1086.05830  1307.13453  223.00000  17.84507             16.13810
1083.64925  1737.42537  134.00000  16.05662             10.74017
1084.79144  1790.60963  187.00000  16.33169             14.60798
1084.12338  1812.87662  154.00000  14.59325             13.46682
1086.76608  865.78947   171.00000  16.21910             13.74664
1085.19474  1673.13684  190.00000  17.19842             14.32783
1092.73151  962.62740   365.00000  27.70246             17.28296
1086.42857  1772.02286  175.00000  15.35564             14.50674
1090.68621  1246.16207  290.00000  27.69516             13.95471
1090.30476  1750.12381  105.00000  13.01682             10.29621
1098.44238  830.22677   269.00000  23.52055             14.86809
1093.98592  1081.34272  213.00000  19.62776             14.09908
1095.19792  1956.88542  96.00000   12.79002             9.67361
1100.93284  223.48881   268.00000  19.01110             18.12715
1097.94737  572.10526   76.00000   10.96235             8.82729
1098.05882  1732.66387  119.00000  13.40391             11.44889
1101.24444  2031.02222  90.00000   13.78009             8.58361
1104.41014  261.35023   217.00000  19.62765             14.15907
1113.35274  813.11644   292.00000  31.48159             12.30058
1109.32661  1298.36290  248.00000  22.94485             13.95305
1110.73810  184.76786   168.00000  15.67070             13.73189
1111.61151  1736.12950  139.00000  15.61252             11.45076
1116.03830  198.31489   235.00000  23.63711             12.86064
1115.03077  1056.16410  195.00000  16.48452             15.18093
1117.09770  1810.57471  348.00000  26.13125             18.34775
1118.76596  1181.00426  235.00000  21.47481             14.21950
1121.24179  864.73433   335.00000  27.77020             16.80668
1115.76190  1220.28571  42.00000   8.30572              6.56411
1128.96569  1022.64461  408.00000  30.44303             19.87228
1127.69795  572.33138   341.00000  24.55710             17.88974
1128.64314  807.20392   255.00000  19.87640             16.49712
1126.95305  1159.11737  213.00000  20.16960             13.57683
1129.18905  1717.25373  201.00000  19.09106             13.92586
1129.62780  925.34081   223.00000  17.55646             16.19669
1129.36538  1936.62179  156.00000  16.56841             12.13753
1131.74812  1956.78195  266.00000  21.08509             16.42723
1134.36299  229.74733   281.00000  22.58905             15.94386
1134.10667  1055.28889  225.00000  20.74762             14.01019
1129.91860  1728.90698  86.00000   11.57460             9.64090
1135.76555  1297.06220  209.00000  19.38468             13.79900
1140.50917  1117.69725  218.00000  19.46422             14.50995
1134.33333  1273.69697  33.00000   7.68989              5.58519
1141.02247  887.47191   267.00000  23.66726             14.64094
1146.35918  1841.42449  245.00000  21.22443             15.00220
1146.30088  268.97345   113.00000  14.18147             10.34843
1152.95217  155.99565   230.00000  17.92208             16.36584
1152.47005  258.68664   217.00000  18.24621             15.19996
1151.60563  1691.92254  142.00000  15.52356             11.71184
1150.53077  1994.59231  130.00000  13.27371             12.83368
1155.21509  1286.41509  265.00000  21.62554             15.78993
1157.16667  316.46377   276.00000  20.39557             17.33444
1156.16272  1203.49112  338.00000  25.00810             17.29225
1160.92308  839.78769   325.00000  27.81812             14.96440
1156.17593  1133.65741  216.00000  17.83380             15.61187
1155.70984  1148.76166  193.00000  16.89104             14.67370
1155.89571  129.54601   163.00000  15.22847             13.95905
1158.93195  936.98817   338.00000  28.75935             15.40752
1159.65909  1697.85227  88.00000   11.69119             9.65864
1159.55000  1709.21000  100.00000  12.04897             10.59796
1169.97222  227.80208   288.00000  21.74223             16.91556
1167.98058  1715.36893  103.00000  12.00556             11.03627
1172.55747  1193.22989  174.00000  15.24399             14.75192
1172.81313  1836.78283  198.00000  16.48599             15.34090
1176.18750  1263.60096  208.00000  22.75944             12.17713
1173.25000  1688.71000  200.00000  19.42024             13.15860
1175.71493  1251.76018  221.00000  19.20153             14.75883
1171.13115  535.55738   61.00000   11.13657             7.04387
1177.33333  317.30741   270.00000  21.48307             16.08366
1179.08876  184.37278   169.00000  17.38319             12.64707
1181.35200  928.56800   250.00000  18.70987             17.25978
1181.64362  1890.35638  188.00000  16.24418             15.35324
1182.05727  1216.90308  227.00000  17.95889             16.11052
1182.64455  271.68720   211.00000  18.95769             14.23483
1185.16250  23.75625    320.00000  23.71840             17.26454
1185.07729  1674.33816  207.00000  18.56525             14.20334
1187.58011  127.22652   181.00000  16.53877             13.94380
1188.77091  369.95636   275.00000  20.46088             17.15561
1184.83871  1700.11828  93.00000   11.85766             10.03236
1186.86982  1869.84024  169.00000  16.90832             12.76124
1189.04878  1830.85366  123.00000  14.81015             11.14512
1192.20833  183.61458   96.00000   11.30702             10.93527
1197.47426  987.20588   272.00000  21.03372             16.55506
1195.41880  5.22222     117.00000  13.02154             11.59304
1202.06167  614.06167   227.00000  21.40709             13.63245
1202.55821  794.51642   335.00000  24.82615             17.33766
1208.17489  1267.01794  223.00000  20.84345             13.71319
1206.79747  1689.54430  158.00000  15.95109             12.64968
1210.42222  874.35238   315.00000  22.65483             19.30644
1203.86111  1252.61111  36.00000   7.34501              6.16353
1207.21053  99.08271    133.00000  15.16757             11.23829
1213.90638  181.00426   235.00000  19.72489             15.18891
1215.45556  131.12778   180.00000  20.52097             11.75005
1222.64528  347.57170   530.00000  35.93790             19.68283
1216.71628  78.94419    215.00000  19.42157             14.17088
1219.51515  933.01732   231.00000  21.87679             13.56320
1217.85581  1246.52093  215.00000  18.41506             14.86519
1221.29508  618.25820   244.00000  21.29470             14.63022
1221.83434  1507.63253  332.00000  25.70136             16.99956
1218.34615  96.01282    156.00000  17.12328             11.67297
1224.14729  234.54651   258.00000  22.26368             14.75725
1223.85616  1178.75685  292.00000  23.37550             16.12221
1226.32453  903.43019   265.00000  24.62935             14.15847
1224.12987  1667.28571  154.00000  15.66899             12.55731
1223.51485  1689.57426  101.00000  13.88298             9.29402
1226.54634  1810.72683  205.00000  21.04496             12.69524
1225.45833  1737.42857  168.00000  16.46906             13.07464
1227.48673  1873.20354  226.00000  18.41211             15.71571
1226.60426  1528.42553  235.00000  20.57522             14.76013
1231.52615  1012.93846  325.00000  25.60941             17.39462
1230.39459  1857.01622  185.00000  16.05271             14.73253
1232.42000  20.37500    200.00000  19.23511             13.31684
1230.60784  1653.25490  102.00000  13.11133             9.92347
1239.03738  829.01246   321.00000  21.76393             19.03664
1235.26712  889.47945   146.00000  17.74880             10.77014
1236.15976  1958.49112  169.00000  18.27642             12.10118
1240.74324  1170.32432  148.00000  17.39510             10.99249
1244.06773  1571.83267  251.00000  25.23176             12.87761
1242.51042  1828.73958  192.00000  16.17649             15.19543
1240.60177  1645.70796  113.00000  14.12420             10.17736
1246.76963  1847.71728  191.00000  16.46292             14.81813
1247.72105  1487.61053  190.00000  16.75057             14.48481
1247.79885  75.99425    174.00000  15.49362             14.42981
1250.66387  178.96218   238.00000  21.56494             14.14974
1249.10870  121.94022   184.00000  17.02660             13.91984
1249.22727  282.01948   154.00000  15.63748             12.59304
1249.96996  336.93133   233.00000  18.82315             15.87945
1251.89671  1220.46009  213.00000  18.47272             15.23983
1256.53804  896.23913   368.00000  23.30652             20.25808
1260.63636  956.20364   275.00000  25.02507             14.15240
1254.66912  1168.22059  136.00000  16.18701             10.77212
1253.53782  1642.67227  119.00000  12.95487             11.68536
1259.59036  1028.44880  332.00000  24.33488             18.07421
1256.17327  1791.38614  202.00000  19.99043             12.90835
1261.20243  1822.75304  247.00000  19.34208             16.42827
1269.62634  859.95968   372.00000  25.66096             18.90973
1263.23077  129.80000   130.00000  13.39320             12.60248
1267.72500  1746.96875  160.00000  16.56313             12.31816
1271.27526  38.71777    287.00000  22.19615             17.42463
1270.47490  317.88803   259.00000  20.29295             16.30646
1267.51095  1776.86861  137.00000  14.82519             11.86763
1270.45506  1558.93258  178.00000  17.03840             13.46043
1270.54867  1495.55752  113.00000  14.23746             10.19632
1275.76779  1808.90262  267.00000  23.45103             14.63825
1277.35000  389.34062   320.00000  29.25386             14.56522
1274.66049  1573.09259  162.00000  15.83303             13.13089
1275.65922  168.49162   179.00000  17.14361             13.33339
1275.05714  236.44571   175.00000  17.07857             13.17466
1276.25523  272.96653   239.00000  24.54343             12.42244
1279.91005  1467.42857  189.00000  17.83667             13.54638
1279.86957  1540.00725  138.00000  13.65858             12.90138
1281.85223  214.79725   291.00000  22.79628             16.30664
1280.07752  1496.08527  129.00000  14.93391             11.25421
1285.57432  1567.72297  148.00000  14.15286             13.35995
1284.95918  1588.00000  49.00000   8.55236              7.27127
1291.54225  167.72535   142.00000  17.21724             10.75561
1294.84302  279.86628   344.00000  27.45112             17.66055
1293.54753  20.07605    263.00000  21.97446             15.34465
1293.40083  1106.90496  242.00000  20.79530             14.95826
1291.56463  1529.59184  147.00000  14.51390             12.98987
1296.18008  129.74330   261.00000  20.31070             16.42917
1299.55474  922.27372   274.00000  29.53455             12.16478
1299.12150  1191.42679  321.00000  28.03113             15.64847
1298.56478  1600.23588  301.00000  25.19724             15.25538
1299.55422  1494.46386  166.00000  14.92524             14.23090
1300.19540  1567.94828  174.00000  16.71400             13.31450
1302.40761  1332.73913  184.00000  16.21035             14.45831
1301.22449  1400.37755  98.00000   13.00118             9.68718
1303.87081  1693.55981  209.00000  17.20793             15.55614
1305.99684  907.62975   316.00000  23.11309             17.43840
1303.97015  1436.58209  134.00000  14.95687             11.78374
1302.61224  1519.76531  196.00000  19.29557             13.12678
1306.25397  951.13757   189.00000  17.20863             14.02678
1305.04211  1470.33684  95.00000   13.51259             8.98114
1308.22346  1578.20112  179.00000  17.37611             13.14122
1312.71975  406.62739   314.00000  27.81849             15.33585
1311.06944  1463.50694  144.00000  18.03179             10.23604
1306.75510  1414.38776  49.00000   9.95386              6.34423
1314.72059  1307.11275  204.00000  18.92088             13.75695
1315.62676  1489.02817  142.00000  15.73908             11.56294
1315.89744  1411.21154  156.00000  15.67543             12.76460
1320.09123  1063.96491  285.00000  19.67397             18.77763
1317.60741  1396.08889  135.00000  14.17779             12.14777
1321.43366  972.63430   309.00000  25.64031             15.71763
1322.01261  1774.20588  238.00000  20.56308             14.81794
1321.86567  1358.02985  67.00000   11.98640             7.15037
1323.95980  1435.87940  199.00000  18.52910             13.81179
1324.07200  1696.36800  125.00000  14.88068             10.76567
1330.89241  959.32278   316.00000  28.53056             14.30775
1331.04878  130.39024   246.00000  20.73146             15.16494
1329.77725  1031.30806  211.00000  19.24190             14.03807
1326.55303  1406.49242  132.00000  14.26584             11.96271
1332.70000  1719.40500  200.00000  18.93594             14.00021
1334.39189  245.14865   222.00000  19.31138             14.71557
1333.76812  71.60870    138.00000  15.03378             12.13486
1334.24528  1003.94340  318.00000  23.33124             17.43409
1336.03788  1788.43561  264.00000  22.18184             15.25135
1334.07576  1352.89394  198.00000  18.04121             13.96317
1335.53873  1751.88380  284.00000  21.31270             17.18029
1335.50761  1578.14721  197.00000  16.46659             15.23409
1340.94245  1159.64388  278.00000  33.25380             12.25927
1335.95000  1365.93000  100.00000  14.17241             8.97911
1335.53797  1395.74051  158.00000  17.99321             11.27132
1340.74733  202.29537   281.00000  22.31908             16.12927
1339.42754  379.85870   276.00000  22.17324             16.02540
1334.61111  837.13889   36.00000   7.34501              6.16353
1341.81340  176.96172   209.00000  20.37647             13.08890
1348.53917  1367.54378  217.00000  19.47778             14.75916
1349.24479  1659.20833  192.00000  18.02701             13.63049
1361.06069  444.30058   346.00000  29.01797             15.46997
1358.27586  1495.78325  203.00000  16.21337             15.97982
1362.58120  1707.52137  234.00000  19.56309             15.42592
1363.00885  240.88938   226.00000  19.62181             14.82852
1363.27468  1777.94850  233.00000  18.59665             16.06334
1363.64740  1732.83815  173.00000  15.48139             14.23012
1370.01587  182.15873   252.00000  26.37446             12.35891
1371.43023  394.41473   258.00000  21.82203             15.37365
1374.24345  256.65169   267.00000  22.33732             15.28645
1375.47701  1535.09195  174.00000  17.02066             13.11108
1380.06667  931.61053   285.00000  24.05708             15.82828
1379.53036  287.07692   247.00000  20.66720             15.40007
1380.68075  971.95775   213.00000  19.40280             14.02123
1379.83810  1548.07143  210.00000  17.52044             15.32752
1382.40226  1138.11278  266.00000  21.11002             16.06364
1394.06786  458.35000   280.00000  27.96776             12.80400
1393.44369  122.49488   293.00000  25.15199             15.23901
1388.78022  1626.81319  182.00000  17.38939             13.35619
1392.88614  164.88119   202.00000  20.73929             12.58410
1392.91327  184.85714   196.00000  17.91372             13.97515
1395.86942  1683.87973  291.00000  24.39508             15.56821
1395.05072  228.01087   276.00000  19.49933             18.07135
1400.65879  1126.90551  381.00000  27.54165             18.43135
1398.37559  274.20188   213.00000  18.52356             14.74530
1397.27160  2012.39506  81.00000   11.35906             9.30341
1408.34752  950.89362   282.00000  25.27451             14.80634
1407.75458  398.43223   273.00000  24.70953             14.36696
1406.41779  1162.99461  371.00000  27.15164             17.83317
1403.88820  1604.49068  161.00000  15.70633             13.20989
1404.68182  1616.40909  110.00000  13.34172             10.54648
1407.96386  863.69880   83.00000   11.65811             9.05481
1411.94898  186.53061   98.00000   12.36059             10.28055
1414.16667  878.33333   48.00000   8.94402              6.86408
1416.79191  1504.47977  173.00000  16.71321             13.19806
1417.76000  1706.91429  175.00000  17.88720             12.71457
1421.70168  894.23950   238.00000  20.25526             15.63087
1423.35789  1100.07105  380.00000  26.36947             18.51755
1429.00456  1068.47608  439.00000  31.24482             18.48370
1435.07807  458.99257   269.00000  25.89180             13.35475
1431.44211  1708.61579  190.00000  17.19727             14.10288
1435.58333  852.85667   300.00000  23.29948             17.03803
1432.47748  100.39640   111.00000  12.63804             11.22542
1433.70290  6.99275     138.00000  16.60281             10.67194
1444.83108  1457.31081  296.00000  27.31442             14.53147
1442.40367  170.66055   218.00000  17.84762             15.61764
1441.62051  186.52821   195.00000  18.42016             13.72930
1443.36585  893.43206   287.00000  20.55731             17.95165
1443.44737  985.78571   266.00000  20.91384             16.62856
1448.50370  1651.85185  270.00000  29.59679             12.23373
1444.37107  355.30189   159.00000  15.56515             13.13699
1449.14402  1007.86685  368.00000  28.65303             18.17898
1448.94024  410.88048   251.00000  21.51477             15.11287
1452.00966  1119.87923  207.00000  20.31248             13.65975
1446.73469  837.67347   49.00000   8.54448              7.28967
1454.49223  64.66321    193.00000  17.77660             14.11575
1453.46809  323.70638   235.00000  20.16564             14.94509
1454.97938  119.85567   97.00000   12.31179             10.29850
1456.62687  196.29104   134.00000  14.42764             11.93855
1459.42918  1795.88412  233.00000  20.40148             14.60376
1467.44937  971.62025   474.00000  29.47137             20.79905
1470.14592  204.90558   233.00000  28.81378             10.55599
1467.49537  464.75463   216.00000  23.49649             11.94073
1462.52830  865.64151   53.00000   8.90612              7.54663
1465.53922  948.54575   306.00000  29.28165             13.55468
1469.14019  317.62617   214.00000  17.49650             15.72529
1469.44444  105.64352   216.00000  18.97422             14.56174
1469.83835  1114.68045  266.00000  20.07715             17.30485
1473.05093  352.58333   216.00000  21.97513             12.84582
1474.54167  218.85417   96.00000   12.48898             9.98286
1480.09239  1676.39130  184.00000  16.17254             14.53457
1479.94505  92.15385    91.00000   11.90025             9.87955
1482.31053  237.04211   190.00000  20.02724             12.29598
1486.06835  130.99281   278.00000  22.54838             16.20681
1481.43210  442.01852   162.00000  16.22528             12.72382
1485.17222  1109.83333  180.00000  17.67844             12.97768
1485.69626  1815.30841  214.00000  17.67960             15.48300
1483.68750  405.85000   80.00000   13.22272             7.76126
1488.21196  77.66848    184.00000  16.98031             13.83036
1489.95175  316.70175   228.00000  19.19185             15.16119
1497.66538  1007.37692  260.00000  25.31557             13.17966
1497.42672  1431.81034  232.00000  22.10449             13.38962
1495.58861  415.98101   158.00000  15.11596             13.44409
1499.18561  1454.78030  264.00000  19.19215             17.83693
1499.39524  1641.09524  210.00000  20.07433             13.41838
1498.04861  1863.93056  144.00000  16.03373             11.67257
1504.31351  488.59459   185.00000  17.44685             13.63262
1512.25339  421.16290   221.00000  26.89885             10.74910
1510.25439  1658.49123  228.00000  18.77515             15.55751
1511.02791  1837.35814  215.00000  18.04955             15.19731
1511.11321  1818.16981  106.00000  14.07540             10.07939
1517.61888  71.38462    286.00000  21.34924             17.30985
1516.26577  196.29279   222.00000  19.01910             14.95780
1516.30409  371.67251   171.00000  18.36890             11.86951
1517.03933  1754.80337  178.00000  15.76098             14.38257
1517.71318  2032.01550  129.00000  15.85638             10.88485
1521.23810  1779.35374  147.00000  15.34594             12.24083
1523.35172  408.30345   145.00000  14.87565             12.48365
1531.96337  987.06960   273.00000  24.28055             14.42871
1529.13084  296.60748   214.00000  19.73955             13.82345
1528.11842  1940.61184  152.00000  15.59789             12.49283
1526.64828  348.62069   145.00000  17.09367             10.93275
1526.02128  1961.80851  47.00000   8.48928              7.30039
1534.90345  1734.26897  145.00000  15.01034             12.35468
1537.67879  341.74545   165.00000  15.22449             13.85991
1539.56279  47.35814    215.00000  20.17811             13.61577
1543.91498  402.24696   247.00000  22.69690             13.90432
1543.40952  1635.03810  210.00000  18.37565             14.57102
1543.95337  511.95337   193.00000  17.59872             14.13839
1546.27935  293.90688   247.00000  20.94988             15.07682
1551.41327  219.69388   196.00000  17.79358             14.24183
1555.32319  1034.73384  263.00000  24.28039             13.84406
1553.95175  360.32456   228.00000  18.46481             15.79235
1555.38589  152.31120   241.00000  20.48398             15.03003
1556.98268  1757.34199  231.00000  20.30973             14.54572
1559.12653  520.95102   245.00000  21.54932             14.48720
1560.68519  201.80864   162.00000  23.46510             10.00284
1561.01020  400.24490   98.00000   14.46181             8.83505
1568.88652  431.53546   282.00000  25.56648             14.53199
1562.89175  1690.39691  194.00000  17.25491             14.35102
1570.42411  139.18304   224.00000  18.32249             15.63013
1572.87317  1615.40000  205.00000  22.64903             12.02718
1571.21387  1708.33526  173.00000  16.47490             13.43927
1575.43716  1040.85246  183.00000  16.95685             13.79749
1577.67347  1459.11735  196.00000  19.29743             12.96026
1577.68750  1749.87019  208.00000  20.33490             13.53223
1576.69072  38.46907    194.00000  17.31225             14.26617
1577.45833  174.31250   192.00000  17.95547             13.67519
1577.99408  221.81065   169.00000  17.31021             12.45281
1577.22917  1871.54167  144.00000  14.64777             12.51742
1580.31522  334.21739   184.00000  17.23460             13.62594
1581.65241  403.28877   187.00000  19.15510             12.45298
1579.14516  1681.58065  124.00000  12.98175             12.19998
1583.00476  1731.26667  210.00000  17.62231             15.18934
1588.47177  1699.97984  248.00000  25.46518             12.72370
1589.72687  1794.27313  227.00000  19.01350             15.27697
1595.64567  1465.87795  254.00000  22.71777             14.35278
1596.27099  283.72519   262.00000  23.13556             14.58470
1599.39224  264.20259   232.00000  21.50759             13.94428
1604.42857  358.00311   322.00000  27.21774             15.35849
1600.62577  78.59509    163.00000  15.76924             13.31500
1602.51240  438.23554   242.00000  21.47208             14.47404
1605.46396  158.18018   222.00000  20.96225             13.50105
1602.81818  1610.86364  132.00000  13.06355             12.88300
1604.60870  1835.70186  161.00000  16.18038             12.81935
1604.98675  122.53642   151.00000  15.41246             12.62270
1607.71978  1647.04945  182.00000  17.31576             13.57643
1611.53640  1053.22605  261.00000  23.97576             14.00063
1611.11715  1594.26360  239.00000  20.81372             14.89045
1612.59813  536.26168   214.00000  19.96315             13.68944
1616.19219  452.53453   333.00000  22.07010             19.50376
1619.85408  1612.09442  233.00000  21.61393             13.95988
1618.66667  9.49673     153.00000  16.10050             12.08856
1620.31858  1703.52655  226.00000  17.82187             16.15639
1620.32941  33.20000    85.00000   12.98346             8.75117
1621.72727  259.29412   187.00000  16.92270             14.13419
1623.63433  1470.55224  268.00000  20.37843             16.95382
1621.14744  49.89103    156.00000  16.36017             12.16603
1623.20139  1746.72917  144.00000  14.38361             12.76977
1630.24345  471.59551   267.00000  24.02360             14.64400
1628.91736  153.02479   121.00000  15.25199             10.12246
1631.75377  1485.67839  199.00000  18.53993             13.72588
1629.23729  1549.05085  118.00000  13.54615             11.09437
1633.40807  1590.75785  223.00000  19.62427             14.62056
1632.78636  283.50455   220.00000  19.27545             14.64548
1635.43269  1668.63462  208.00000  19.16165             13.86777
1632.13223  1736.77686  121.00000  15.58767             9.88769
1636.28019  534.75362   207.00000  20.11677             13.39285
1637.34123  1507.54028  211.00000  19.52969             13.78511
1638.93156  351.09506   263.00000  22.17508             15.19357
1636.75581  242.10465   172.00000  15.87430             13.87965
1640.33884  80.52893    242.00000  19.93705             15.55696
1639.88550  318.12977   262.00000  19.12200             17.52054
1644.60050  1067.09181  403.00000  26.84221             19.32106
1650.08582  1537.96269  268.00000  25.59398             13.64919
1649.64286  1612.56494  154.00000  16.75602             11.77650
1655.89552  1507.17413  201.00000  18.27468             14.09080
1655.70370  1660.53704  216.00000  19.74344             14.00634
1655.46479  486.07512   213.00000  18.08793             15.06740
1659.53807  1528.78173  197.00000  19.58107             12.82048
1661.82065  152.21739   184.00000  16.92937             13.90166
1664.76512  464.95730   281.00000  21.03331             17.25065
1665.31579  87.07895    114.00000  15.15579             9.98471
1666.79227  443.08213   207.00000  18.57891             14.31180
1670.61776  305.22008   259.00000  19.84050             16.88202
1671.30000  1734.50870  230.00000  18.37260             16.01188
1671.40206  258.16495   194.00000  18.15854             13.63850
1672.44444  543.33333   180.00000  16.29099             14.15073
1674.87956  1563.59124  274.00000  24.81716             14.08650
1675.35354  20.06061    198.00000  16.75494             15.10774
1674.62944  1664.63452  197.00000  19.44181             12.95273
1678.78846  1620.36538  260.00000  19.08748             17.67964
1683.56021  360.90576   191.00000  21.07781             11.58385
1688.61512  1522.89691  291.00000  24.24303             15.64655
1689.77333  236.65333   225.00000  20.42678             14.09750
1686.31633  1720.94898  98.00000   12.67297             10.11152
1691.17910  198.61194   268.00000  21.18147             16.26659
1690.29960  334.62753   247.00000  22.09198             14.34159
1691.25490  1582.99510  204.00000  20.10649             13.45810
1690.44503  1600.79581  191.00000  15.91581             15.32690
1689.00654  408.11765   153.00000  17.49106             11.14305
1694.51020  545.35510   245.00000  23.61164             13.27011
1694.86709  1557.27215  158.00000  18.46964             11.27279
1696.69784  1643.24460  139.00000  15.43089             11.51736
1704.20283  353.90566   212.00000  20.01624             13.54177
1699.95798  1754.37815  119.00000  15.10816             10.62177
1704.07834  1657.01382  217.00000  20.15370             13.77616
1707.27468  444.90987   233.00000  21.91887             14.11945
1705.34091  1682.61364  176.00000  15.54064             14.52473
1712.30093  213.93056   216.00000  18.73993             14.76834
1712.20325  335.17886   123.00000  14.58478             10.86042
1717.17476  1699.24272  103.00000  12.10034             11.21178
1724.58392  1498.74126  286.00000  25.45575             14.35499
1722.64912  1839.76754  228.00000  18.22023             15.96474
1722.05882  390.80882   204.00000  19.45022             13.39409
1724.52848  1565.31329  316.00000  20.37365             19.87147
1722.40588  481.70000   170.00000  17.50389             12.60939
1728.63846  198.85385   130.00000  13.54765             12.52679
1729.81624  1635.02137  234.00000  19.21268             15.90894
1732.44444  550.28889   180.00000  17.44141             13.20990
1731.68750  1581.00893  112.00000  13.78461             10.39880
1736.93676  298.51779   253.00000  23.82631             14.02315
1739.51965  1546.74236  229.00000  21.94971             13.33045
1739.20725  349.31088   193.00000  17.69726             13.94338
1738.15000  368.00556   180.00000  19.30825             12.02164
1739.08696  476.20000   115.00000  13.56142             10.83417
1749.00000  456.66443   149.00000  15.74112             12.18093
1749.83158  256.41053   95.00000   12.42009             10.28752
1756.19935  553.25817   306.00000  25.98376             15.71825
1752.50340  1656.04082  147.00000  18.57892             10.08910
1751.60305  51.58779    131.00000  13.83530             12.06539
1752.26380  206.16564   163.00000  15.42820             13.49487
1755.73367  1349.14070  199.00000  21.39626             11.89251
1760.17031  421.67249   229.00000  22.29959             13.25225
1759.67606  434.18310   142.00000  14.82721             12.37536
1763.39224  1627.21552  232.00000  22.63492             13.19249
1760.59146  1641.57927  164.00000  16.27572             12.87987
1760.62937  358.67133   143.00000  13.71825             13.33362
1761.51095  392.14599   137.00000  17.00777             11.02347
1764.12981  1778.99038  208.00000  18.17418             14.57492
1767.17822  119.58911   202.00000  18.13001             14.33593
1764.12371  1888.98969  97.00000   12.50354             10.06128
1770.73986  1482.13176  296.00000  21.86012             17.40819
1772.41333  650.08444   225.00000  18.08650             16.05725
1772.83978  286.88950   181.00000  20.27382             11.45499
1778.22467  1125.20264  227.00000  20.33464             14.32590
1780.59740  1360.03247  154.00000  19.47643             11.01976
1781.29730  1613.82703  185.00000  16.34493             14.47342
1793.17647  439.45378   119.00000  15.59238             9.85657
1797.60294  1568.76471  272.00000  22.78315             17.23170
1796.07879  636.02424   165.00000  20.33579             10.51037
1799.80075  1139.39850  266.00000  20.42510             17.19329
1802.95848  1528.07612  289.00000  20.25911             18.22035
1802.87963  363.43056   216.00000  20.73186             13.32053
1801.68889  331.98889   90.00000   12.82014             9.19686
1804.59690  412.35659   129.00000  15.08240             11.00577
1808.74038  1502.40705  312.00000  21.05654             19.73076
1809.16432  218.62441   213.00000  20.73845             13.19474
1819.11215  1783.73832  214.00000  19.11685             14.42404
1819.66531  1845.55510  245.00000  20.24349             15.58653
1821.72297  399.56757   148.00000  16.26450             11.70367
1824.09852  444.11823   203.00000  19.90998             13.04717
1824.08081  1161.68687  198.00000  18.73020             13.65636
1828.14359  1358.98974  195.00000  24.89650             10.16666
1825.30469  608.42188   128.00000  15.67941             10.43782
1824.92969  1540.61719  128.00000  13.93406             11.77574
1833.63200  1487.46800  250.00000  26.38157             12.30958
1831.02765  414.14747   217.00000  18.01527             15.42613
1839.00800  1515.33600  250.00000  21.06385             15.16875
1840.81875  224.61250   160.00000  18.21658             11.38983
1840.68992  399.06977   129.00000  14.44486             11.58291
1839.71765  1837.77647  85.00000   12.56867             8.75015
1846.69274  602.69274   179.00000  18.83141             12.27931
1852.30508  1474.96610  177.00000  17.02397             13.42984
1852.11290  1582.87097  62.00000   9.96044              8.26555
1874.03439  1198.31481  378.00000  32.34214             16.20766
1870.33632  1385.55605  223.00000  20.65114             13.77567
1871.93506  1589.18182  231.00000  19.68024             14.97722
1881.56452  1488.79435  248.00000  19.03500             16.95410
1889.25101  1576.12551  247.00000  19.46235             16.30496
1890.09375  1654.04911  224.00000  19.95170             14.34400
1891.48469  1226.33163  196.00000  20.27933             12.38356
1890.76271  343.38136   118.00000  14.49839             10.64016
1896.50711  1213.36019  211.00000  18.96071             14.31493
1894.21622  1770.05405  111.00000  12.61191             11.24345
1899.80676  1601.06280  207.00000  20.11805             13.13529
1898.81614  368.01345   223.00000  18.86693             15.05080
1904.94037  568.83486   218.00000  20.29587             13.97728
1908.04138  1457.78621  145.00000  14.53956             12.75476
1910.28571  1404.00621  161.00000  16.98175             12.10320
1911.76860  319.59917   242.00000  24.77700             12.60704
1930.60194  361.57282   206.00000  18.49665             14.32736
1930.33898  572.38136   118.00000  14.36478             10.54752
1935.44966  1410.26174  149.00000  19.49263             9.77197
1938.11848  1442.30806  211.00000  19.48239             14.57004
1936.16892  247.44595   148.00000  15.73351             12.18581
1940.70673  746.42308   208.00000  21.14887             12.61656
1940.46281  1521.12397  121.00000  14.86032             10.50904
1942.80702  1275.64912  171.00000  18.63045             11.87070
1944.49390  1357.83537  164.00000  18.05955             11.62226
1951.85502  1264.73234  269.00000  25.14321             13.71301
1947.86111  280.94444   252.00000  24.54332             13.34277
1949.60741  129.14074   135.00000  15.10054             11.40005
1950.98077  1871.23077  104.00000  13.01813             10.20450
1957.24280  733.74074   243.00000  19.48200             15.97725
1956.73840  357.85654   237.00000  18.69601             16.20404
1962.06207  717.83448   290.00000  24.68502             15.03737
1956.85496  1749.43511  131.00000  14.50360             11.58132
1961.45290  555.56522   276.00000  22.19992             15.86315
1969.53846  1300.98352  182.00000  18.76780             12.47261
1971.64516  1559.60000  155.00000  15.97570             12.42769
1976.86006  1631.44023  343.00000  23.16553             19.56680
1974.52083  535.82812   192.00000  18.29360             13.52583
1980.29464  735.91071   112.00000  15.30952             9.36342
1987.65641  1436.77436  195.00000  18.86133             13.37537
1995.55556  1420.46953  279.00000  27.24441             14.04398
1990.16760  1515.84358  179.00000  16.29501             14.07404
1996.04046  1570.28902  173.00000  17.33389             12.79271
2001.74178  749.78404   213.00000  23.99193             11.39976
1998.58779  1325.75573  131.00000  16.03674             10.60196
2020.81879  727.78859   298.00000  25.36815             15.29996
2017.38835  523.20388   103.00000  12.92424             10.29197
2030.70270  1420.52510  259.00000  24.62722             13.48353
2035.72973  747.08559   222.00000  21.58428             13.14933
2038.71812  1512.46980  149.00000  15.30616             12.42451