# Filename: Nuclei_416_ctrl_60x_015.npz
# Voxel size (nm): (108, 108)
# Area quantity: voxels
# Num nuclei detected: 1058
Y           X           AREA       MAJOR_AXIS_LENGTH    MINOR_AXIS_LENGTH
68.71500    727.66000   200.00000  18.20076             14.06497
78.11811    1031.02362  254.00000  20.79484             15.57620
78.30638    971.24681   235.00000  21.32513             14.15374
79.35333    388.75333   150.00000  16.70703             11.62687
97.82828    489.65152   198.00000  18.54673             13.63403
99.88809    223.13718   277.00000  24.29584             15.27030
99.77551    1517.98639  147.00000  14.92643             12.84806
104.21028   404.89252   214.00000  19.84022             13.77851
114.35897   586.29487   156.00000  15.12687             13.42526
117.68644   740.27966   118.00000  12.82800             11.82675
119.00000   1487.49660  147.00000  16.26507             11.61829
119.96341   1535.60976  82.00000   12.90254             8.78153
126.38908   1045.63140  293.00000  23.73005             15.86253
134.19365   956.83810   315.00000  26.50214             15.26261
139.29333   622.84889   225.00000  25.00040             11.56287
141.31618   664.25368   272.00000  23.81059             14.67342
142.93443   509.52459   183.00000  16.99693             13.83939
147.38509   644.48447   161.00000  16.18111             12.78854
148.19718   1506.85211  142.00000  16.08221             11.41764
151.52308   531.25385   130.00000  13.13915             12.64121
157.83471   1040.35124  242.00000  19.70243             15.72747
159.64286   571.40000   140.00000  14.92268             12.00589
162.78286   1474.48000  175.00000  19.69641             11.56246
168.71340   694.93769   321.00000  27.00386             15.70862
165.43750   1500.07292  192.00000  17.61781             14.04037
167.00000   520.72781   169.00000  16.13437             13.42565
176.72059   1539.67157  204.00000  20.41480             12.88357
183.20513   668.63675   234.00000  20.32087             15.24067
180.80347   651.96532   173.00000  16.31130             13.60160
187.11856   951.13918   194.00000  19.01895             13.12164
191.73272   963.43779   217.00000  21.44912             13.04591
195.76923   679.18590   156.00000  14.40036             13.83952
202.14340   775.12075   265.00000  22.56840             15.58880
202.29213   596.67416   178.00000  17.70059             13.17242
204.48399   1474.77224  281.00000  19.87690             18.09868
207.28571   482.12500   224.00000  20.54819             13.98219
203.26437   554.05747   87.00000   11.94801             9.40923
210.64655   955.20259   232.00000  20.63211             14.38887
217.30943   589.50943   265.00000  25.75661             13.17571
220.83453   1025.08633  278.00000  27.66217             13.03683
230.37778   481.13889   180.00000  17.36083             13.22995
228.51064   449.41489   94.00000   13.41533             9.36247
235.75916   1615.80105  191.00000  19.90908             12.33283
234.80645   653.42742   124.00000  14.63028             10.82919
241.14563   643.51456   206.00000  20.86741             12.62047
244.94309   690.13415   246.00000  23.71377             13.32948
246.28516   615.50391   256.00000  21.98132             14.85623
252.17117   794.05856   222.00000  19.20306             14.73178
256.70293   544.59414   239.00000  18.26245             16.69139
256.21739   289.89130   46.00000   8.84684              6.85924
264.93411   1603.63178  258.00000  23.73730             13.99472
264.24107   580.92857   224.00000  20.77278             13.81181
267.27344   964.20312   256.00000  22.33129             14.69973
262.72340   421.89362   94.00000   11.64020             10.54850
265.63298   977.16489   188.00000  18.72804             12.82410
265.51550   1585.06977  258.00000  18.96136             17.35308
268.61006   648.86792   159.00000  16.81342             12.08276
275.10837   292.40148   406.00000  26.96021             19.33567
273.64516   502.94355   124.00000  13.70856             11.57626
278.79111   114.56000   225.00000  19.65772             14.81502
281.47547   726.99623   265.00000  24.13482             14.03737
278.58115   637.05236   191.00000  18.44122             13.29576
284.73759   345.56738   141.00000  15.01963             11.99477
286.56039   976.18357   207.00000  19.68621             13.45490
293.41699   1019.16602  259.00000  21.83121             15.20788
295.80645   592.60829   217.00000  23.59836             11.91942
298.98276   674.74569   232.00000  23.72405             12.62969
299.25926   964.37407   270.00000  18.87491             18.45779
298.01172   1254.51562  256.00000  20.87307             15.68825
304.22581   609.73790   248.00000  24.63055             12.83147
304.37681   520.37681   276.00000  24.56776             15.15133
304.56738   313.90780   141.00000  14.05180             12.78455
307.62983   1216.80110  181.00000  15.71812             14.88425
314.47101   773.24275   276.00000  25.98049             13.71342
312.48387   569.45161   93.00000   12.82214             9.28071
316.13291   1685.95570  158.00000  14.81365             13.60524
322.97647   562.40000   255.00000  20.15250             16.11814
323.72816   381.96602   206.00000  18.95941             13.93327
327.53597   822.23741   278.00000  21.19002             16.78609
325.36184   843.11184   152.00000  14.32581             13.55893
327.00000   1703.02941  136.00000  17.66288             10.08246
326.20213   321.85106   94.00000   13.66794             8.82501
332.51402   860.57321   321.00000  25.86436             15.91505
333.78102   707.00730   274.00000  24.74878             14.15606
338.86989   808.21933   269.00000  27.03215             12.70304
338.57200   1649.54000  250.00000  19.64987             16.25442
338.68627   467.24837   153.00000  14.94982             13.20056
341.42246   497.94652   187.00000  19.42079             12.91337
347.63437   1017.26250  320.00000  26.23890             15.67893
346.07267   361.88953   344.00000  31.84222             14.62008
346.02319   630.66667   345.00000  23.50338             18.76311
341.64667   48.27333    150.00000  14.86196             12.97932
344.58427   909.00000   178.00000  17.41961             13.12150
349.27136   79.55779    199.00000  18.47287             13.80459
355.72911   553.84438   347.00000  28.59368             15.97759
352.54545   1198.78261  253.00000  21.43699             15.24550
350.69620   1671.75316  158.00000  16.09949             12.50926
358.31447   882.64151   318.00000  26.30510             15.77358
353.89617   419.32787   183.00000  15.78047             14.90561
356.31208   1244.24161  298.00000  21.94884             17.36765
358.79710   349.73913   138.00000  15.46452             11.48785
364.19156   1336.65909  308.00000  22.89038             17.22048
365.27568   955.87027   185.00000  20.16169             11.91590
367.59048   1677.47143  210.00000  18.35030             14.70337
366.08140   1750.08721  172.00000  15.65077             14.02116
366.91379   490.67816   174.00000  20.01213             11.29908
371.27426   317.02532   237.00000  18.06916             16.91641
372.33333   903.51852   189.00000  18.10773             13.39031
374.87500   300.67647   136.00000  15.95551             10.92609
383.65657   1019.90909  297.00000  27.62604             15.11109
378.78761   472.96903   226.00000  17.78509             16.20383
382.09130   1198.76087  230.00000  19.63372             14.93315
381.90446   533.15287   157.00000  16.25522             12.31071
381.02055   930.21233   146.00000  14.94895             12.44025
385.70948   571.10703   327.00000  25.66673             16.33714
384.57752   735.98450   258.00000  22.29856             15.02271
382.19712   892.50962   208.00000  16.72911             15.86161
391.38796   948.74916   299.00000  25.29388             15.36759
391.61137   436.84360   211.00000  27.18642             10.34411
389.53017   605.93534   232.00000  19.94568             14.89569
393.02000   815.97500   200.00000  19.33947             13.27134
393.00546   455.45902   183.00000  17.86591             13.17620
397.35472   513.30189   265.00000  22.59087             15.17073
399.62037   872.71759   216.00000  18.65199             14.79248
399.25822   364.19249   213.00000  18.03544             15.07579
401.76364   1252.46061  330.00000  23.91673             17.71402
398.96386   475.96386   166.00000  17.72792             11.97153
408.09202   637.09816   326.00000  28.60790             14.58289
405.72388   341.93657   268.00000  21.58550             15.95348
405.67660   391.76596   235.00000  17.70666             16.97586
402.73770   323.90164   61.00000   10.24613             7.57849
405.99187   260.16260   123.00000  13.28663             11.77916
410.65306   771.99592   245.00000  22.16419             14.12301
409.53247   309.11039   154.00000  14.58521             13.46839
414.81618   1026.59191  272.00000  24.95710             13.92828
416.40152   1365.62879  264.00000  22.12882             15.21813
416.92473   974.51613   279.00000  22.48041             15.86454
420.00948   576.25592   211.00000  20.56245             13.08028
419.98039   826.69748   357.00000  28.52153             16.71440
420.60084   929.50420   238.00000  18.76617             16.32456
422.83482   1477.13393  224.00000  17.79566             16.12733
425.86036   428.15766   222.00000  23.78649             12.69380
421.70270   362.01802   111.00000  14.04621             10.09084
428.01342   521.41611   298.00000  20.93346             18.24618
426.62011   621.56425   179.00000  17.35189             13.27578
430.32018   906.34649   228.00000  20.71501             14.10341
430.06757   507.00000   148.00000  19.31226             9.95890
432.42857   497.11330   203.00000  20.00604             13.03589
428.50000   165.13333   90.00000   11.71699             9.84010
430.02564   144.41026   117.00000  13.71655             10.86627
433.86585   214.51220   164.00000  16.13212             12.97845
434.21552   397.49138   116.00000  15.21552             9.82706
437.38492   25.23016    252.00000  21.43971             15.09051
436.38760   408.89147   129.00000  15.81053             10.49293
438.20000   362.44828   290.00000  24.40760             15.69802
439.15934   463.81868   182.00000  17.80987             13.03029
443.70952   479.61429   210.00000  22.84342             11.94313
442.74775   864.50000   222.00000  20.36152             14.09086
444.00372   1315.24907  269.00000  21.60394             16.08232
443.00000   152.66234   154.00000  16.00424             12.37146
448.91566   594.29317   249.00000  23.70745             13.65091
446.93237   620.66667   207.00000  19.61208             13.51430
451.28947   565.55263   266.00000  24.03980             14.49851
446.03030   102.01515   66.00000   10.75900             7.89984
447.69565   291.02174   138.00000  18.77710             9.46789
450.51429   251.62857   140.00000  15.36723             11.62917
453.96104   1029.03896  308.00000  23.09809             17.16652
459.45868   340.64876   242.00000  18.99670             16.38988
461.20202   450.30808   198.00000  19.61249             13.05803
456.61404   916.91228   57.00000   10.54347             6.86809
461.85043   1444.71368  234.00000  19.04307             15.69799
463.12000   370.97200   250.00000  20.49873             15.57354
469.32740   1390.80783  281.00000  23.66754             15.17035
469.32328   231.91379   232.00000  21.15582             14.13552
465.89706   157.94118   68.00000   9.48375              9.12389
481.03600   829.78200   500.00000  30.29906             21.47821
478.65818   888.58545   275.00000  26.92603             13.13534
475.21429   935.40756   238.00000  21.73909             14.21040
478.88294   284.17391   299.00000  24.49766             15.56744
475.74483   1369.85862  290.00000  25.41076             14.64407
473.02083   949.28125   96.00000   11.74914             10.43320
481.34034   310.26471   238.00000  20.78612             14.80590
474.58537   1143.56098  41.00000   8.60142              6.00694
480.57895   192.99474   190.00000  16.33454             14.95778
481.72766   362.45957   235.00000  20.09597             14.94254
484.00346   1137.14187  289.00000  24.75966             15.26899
489.14159   846.54277   339.00000  25.52579             17.07078
489.82018   1091.05702  228.00000  24.43312             12.01450
487.01235   1118.44444  81.00000   11.05857             9.32152
489.01471   929.72059   68.00000   11.53366             7.65919
491.88506   1032.02874  174.00000  19.09556             11.85776
487.65385   1048.25000  52.00000   8.37291              7.91640
493.21091   327.87273   275.00000  21.96876             15.99485
494.32000   264.72800   250.00000  19.84959             16.06698
492.68208   519.14451   173.00000  16.93204             13.65817
498.88818   533.16613   313.00000  26.99749             15.05184
494.47842   1411.75899  278.00000  24.96044             14.50018
496.39796   491.71939   196.00000  19.71870             12.66651
494.79054   164.69595   148.00000  14.00039             13.51165
491.71053   181.75000   76.00000   11.48361             8.45401
500.99035   469.11576   311.00000  26.34137             15.36982
492.06061   1171.12121  66.00000   10.65655             7.88315
496.13821   1050.82114  123.00000  14.94465             10.50138
498.89593   1067.88235  221.00000  19.41822             15.71996
499.89048   999.39048   210.00000  18.77894             14.24667
500.84800   1156.18400  125.00000  17.03106             9.43057
504.50254   1185.02030  197.00000  24.65944             10.46370
507.02952   981.57196   271.00000  22.91505             15.36419
503.89593   1097.96833  221.00000  25.06390             11.48010
507.23849   597.76569   239.00000  19.34723             15.77870
505.56647   950.97110   173.00000  17.05158             12.92231
502.75362   1172.30435  69.00000   9.51791              9.24699
510.59664   630.34034   238.00000  21.68221             14.07233
507.43878   115.97959   98.00000   12.15536             10.27862
510.52800   285.63200   125.00000  14.28332             11.20212
517.30928   346.01031   194.00000  19.80592             12.47545
517.11290   873.24731   186.00000  18.76932             12.81770
515.46992   1163.70301  266.00000  23.01530             15.08964
521.28740   316.52756   254.00000  24.32653             14.10158
517.60987   84.60987    223.00000  18.84989             15.16632
515.39640   894.63964   111.00000  12.83560             11.15443
514.98837   1201.46512  86.00000   11.90356             9.25881
514.91549   941.15493   71.00000   10.92357             8.34856
519.13462   1001.90385  208.00000  23.81862             11.28327
522.60744   544.86777   242.00000  21.00565             15.52553
523.28042   921.30159   189.00000  21.91360             11.28192
519.01648   1053.33516  182.00000  21.41802             11.20217
523.44041   138.56995   193.00000  17.10482             14.38965
525.34672   664.45620   274.00000  21.61489             16.16192
526.20093   422.99065   214.00000  19.84004             14.16479
525.26119   580.80970   268.00000  20.29827             17.04372
524.35833   1211.73333  120.00000  19.33647             7.99013
527.00000   1385.35160  219.00000  20.10342             13.93044
526.14286   989.06494   154.00000  14.67947             13.40729
525.96552   279.88966   145.00000  16.74540             11.13608
527.81111   365.97222   180.00000  16.01502             14.31403
533.40314   399.16230   191.00000  24.55757             10.12892
530.34555   896.56021   191.00000  21.58533             11.81447
534.66667   533.98268   231.00000  19.84149             14.93290
534.88542   1455.62153  288.00000  25.33655             14.49527
535.00606   250.62424   165.00000  17.28543             12.22998
536.99265   872.55147   136.00000  16.95480             10.37631
544.19583   417.80000   240.00000  28.82472             10.90329
538.42953   1033.51678  149.00000  16.83005             11.28495
540.19431   814.61611   211.00000  18.20496             14.81469
542.98261   886.41739   230.00000  22.06071             13.34468
542.07422   931.71875   256.00000  26.88231             12.19837
542.53793   1203.35172  145.00000  20.24351             9.33245
540.26087   1213.30435  115.00000  15.23472             9.92722
544.11667   315.89167   240.00000  18.21066             16.86711
543.40571   591.93143   175.00000  17.74374             12.59045
546.19824   209.16300   227.00000  19.26699             15.19195
544.96078   187.39869   153.00000  16.16256             12.17926
551.93846   610.14231   260.00000  27.24976             12.31965
545.23485   828.82576   132.00000  13.65930             12.37523
547.53672   969.24294   177.00000  19.29527             12.01850
547.14198   1058.98148  162.00000  19.25704             10.85933
557.87218   844.91479   399.00000  33.18361             15.85854
551.76136   1087.61364  264.00000  25.92448             13.08541
549.71186   356.10169   177.00000  17.60261             12.82913
550.81507   381.50685   146.00000  16.01928             11.65188
551.40828   1039.63905  169.00000  15.03951             14.62335
553.32573   705.74267   307.00000  21.67963             18.13141
550.24359   1217.33333  78.00000   11.54045             8.81075
551.32955   961.34091   88.00000   13.78395             8.27078
553.51961   1871.58333  204.00000  18.10034             14.42036
552.75000   818.89773   88.00000   11.59878             9.74824
556.39459   674.57838   185.00000  17.60198             13.48602
559.31034   538.67816   174.00000  18.76237             11.83383
555.76812   1223.02899  69.00000   10.90044             8.11258
559.97030   996.99505   202.00000  17.66771             14.71027
561.41892   247.08559   222.00000  17.61980             16.55309
559.75824   1109.16484  91.00000   13.23433             8.90543
562.57778   1233.50556  180.00000  16.61694             14.30625
565.11111   149.67490   243.00000  19.62262             15.89557
564.84701   176.63806   268.00000  18.78802             18.26511
569.68810   277.81672   311.00000  25.19746             15.81273
567.42979   403.08936   235.00000  23.13366             12.96400
568.06926   722.29004   231.00000  21.93182             13.57347
569.70455   653.86364   220.00000  22.08181             12.76676
568.76506   883.83133   166.00000  21.81234             9.91003
569.48621   1362.48966  290.00000  21.87468             17.44519
568.76757   313.08108   185.00000  17.67528             13.36874
569.90871   464.34855   241.00000  19.52250             15.84567
570.26582   53.29536    237.00000  20.31656             14.93848
570.58219   1105.11644  146.00000  16.13219             11.71243
575.75207   491.72452   363.00000  23.48838             20.45364
573.13216   988.19824   227.00000  17.81334             16.43078
578.63863   522.14953   321.00000  28.64016             16.12793
575.29534   701.05181   193.00000  17.32811             14.28568
576.73359   932.01931   259.00000  21.21659             15.55127
583.15244   965.34756   328.00000  28.62001             15.62534
572.18367   1215.83673  49.00000   8.97631              6.93486
575.08955   1228.47761  134.00000  14.39913             12.01953
578.14126   1532.80297  269.00000  22.46928             15.27947
583.54733   1061.54321  243.00000  23.92501             14.04305
582.12705   1156.98770  244.00000  21.03709             14.85006
585.82843   999.45588   204.00000  19.36164             13.79390
591.07916   876.82586   379.00000  26.99038             18.67851
588.43719   632.63317   199.00000  20.53378             12.34377
587.73462   1516.21923  260.00000  19.89421             16.69597
587.90341   744.23295   176.00000  17.59951             12.75517
587.96578   329.69582   263.00000  23.85367             14.12052
593.46557   783.88525   305.00000  26.42567             14.91964
589.93684   135.24737   190.00000  16.08573             15.16770
593.18182   172.23754   341.00000  23.48931             18.69573
590.40789   240.58333   228.00000  20.94743             14.26480
586.54839   857.58065   31.00000   6.42575              6.06314
590.80208   1133.63542  96.00000   15.06167             8.31019
593.85629   1248.39521  167.00000  18.80669             11.43504
601.05654   844.48410   283.00000  28.19499             12.97774
598.01277   1579.11064  235.00000  20.11941             14.95918
598.07727   299.98182   220.00000  23.65089             11.97679
602.26394   403.50929   269.00000  25.33637             13.69017
599.62857   606.38095   210.00000  19.30855             14.05645
601.63014   806.42123   292.00000  21.92184             17.14866
599.67757   1074.61215  214.00000  18.58173             14.69804
602.50644   1111.00429  233.00000  22.97248             13.11317
599.49235   1316.29052  327.00000  27.20627             15.46771
601.63519   1199.01288  233.00000  20.24790             14.78814
604.52650   1565.48410  283.00000  23.86308             15.44467
600.00000   1750.86885  183.00000  16.44924             14.46192
603.32281   1640.05614  285.00000  20.31255             17.91359
602.58333   1780.79386  228.00000  18.17808             16.03925
605.16425   579.48309   207.00000  22.82803             11.88717
605.28632   521.72650   234.00000  17.89005             16.84017
604.45455   943.50267   187.00000  16.22334             14.90649
607.85401   1089.97445  274.00000  26.51538             13.27746
606.31757   590.76351   148.00000  15.75871             12.14187
610.42405   720.88608   316.00000  28.89678             14.12665
607.71921   502.22660   203.00000  18.78812             13.78789
607.06316   1795.76842  190.00000  16.05880             15.10292
610.67164   883.02488   201.00000  19.89934             13.03545
613.99149   636.97447   235.00000  22.15781             13.51495
606.32432   1232.91892  37.00000   8.56781              5.62275
614.15049   332.50485   206.00000  20.67993             12.79476
615.17822   1011.30693  202.00000  18.52089             14.41640
618.03930   1248.71616  229.00000  19.40526             15.27992
618.48661   97.48214    224.00000  17.49841             16.42552
623.13169   837.70370   243.00000  28.68572             10.95628
620.70522   259.80970   268.00000  21.38732             16.47661
617.32026   970.15033   153.00000  14.79242             13.29573
618.40094   294.72642   212.00000  20.67873             13.12701
623.10247   736.10601   283.00000  22.33135             16.19367
628.89643   460.14286   280.00000  29.14028             12.50383
624.80180   1143.82432  222.00000  22.02124             13.20375
623.82796   551.23656   186.00000  21.65086             11.08618
626.60976   135.76423   246.00000  20.06857             15.73897
624.89873   1261.06329  158.00000  16.54354             12.20530
627.90476   787.29365   252.00000  19.89550             16.17689
628.28866   667.47938   194.00000  16.76779             14.81488
630.93191   311.17447   235.00000  19.30768             15.68076
633.24000   573.85778   225.00000  25.42642             11.37339
629.27152   987.85430   151.00000  20.13758             10.10435
632.57576   376.85281   231.00000  18.47044             15.93051
637.65424   427.89492   295.00000  20.39486             18.80698
635.95798   913.63866   238.00000  19.14376             15.95595
636.12977   994.35115   131.00000  15.49772             10.84054
636.64423   1124.37019  208.00000  22.17542             11.98533
640.76562   598.92969   256.00000  24.52557             13.53841
640.10390   869.33766   308.00000  22.79431             18.01534
635.78523   1894.13423  149.00000  14.37673             13.29334
640.42500   1065.11429  280.00000  25.31423             14.15948
636.23810   809.60317   126.00000  14.35800             11.31128
641.12339   291.00514   389.00000  33.16069             15.68753
641.84848   76.74074    297.00000  21.80677             17.42184
646.98188   533.65217   276.00000  24.36614             14.55831
644.37885   821.35683   227.00000  21.17289             13.68078
643.30851   1099.94681  188.00000  17.12914             13.99708
651.14884   903.16744   215.00000  26.91794             10.36891
653.79710   1034.38406  276.00000  32.86573             11.03155
646.87981   55.00481    208.00000  17.32361             15.33120
646.90717   632.52321   237.00000  22.45328             13.85485
649.28571   778.02857   210.00000  20.17438             13.36588
654.97222   673.76852   216.00000  20.62612             13.41879
652.63758   974.40268   149.00000  16.32488             11.70772
653.86747   1139.75904  166.00000  17.91496             11.88553
655.13420   276.93074   231.00000  18.25701             16.16676
658.80435   485.53261   276.00000  23.38324             15.40988
658.06757   1045.03153  222.00000  19.70327             14.91895
660.48601   406.36014   286.00000  25.31256             14.48486
658.69444   1063.03704  216.00000  20.52542             13.43319
663.45045   383.70270   333.00000  27.97792             15.81382
662.95185   834.31111   270.00000  33.41208             10.67096
663.35052   1158.29381  194.00000  17.38186             14.25859
664.95833   789.87500   168.00000  17.46688             12.31189
666.26250   934.79167   240.00000  18.29590             16.88973
664.07812   1271.77604  192.00000  16.62474             14.80600
666.86697   1808.98165  218.00000  18.78622             14.93842
670.53872   874.76768   297.00000  23.11059             16.79594
668.47755   127.13061   245.00000  19.32982             16.27429
669.56291   1013.62252  151.00000  18.58998             10.48319
669.04712   320.28272   191.00000  16.87440             14.52396
672.88968   639.27402   281.00000  24.24487             15.23809
668.87069   1075.61207  116.00000  13.65841             10.95508
677.19780   548.64469   273.00000  24.22266             14.49445
677.40782   911.98883   179.00000  22.36394             10.29541
675.59341   1024.62637  182.00000  16.69745             14.38284
675.86127   244.68786   173.00000  16.53460             13.49717
676.97727   666.80455   220.00000  24.07689             11.92294
676.99324   835.33108   148.00000  14.28227             13.39998
683.14516   929.02581   310.00000  28.17146             14.82745
677.38788   1170.50909  165.00000  15.27496             13.87128
681.81116   1135.96137  233.00000  23.97677             12.75338
681.83607   570.20492   244.00000  20.52399             15.16980
677.33333   940.52688   93.00000   11.92532             10.22108
682.72327   1048.71384  318.00000  22.81293             17.76303
678.67188   1184.10938  128.00000  14.42726             11.27786
680.16000   846.84667   150.00000  16.08090             11.94343
680.21429   1792.53571  140.00000  17.15353             10.64632
685.55337   750.40730   356.00000  25.39046             18.33509
687.11470   462.57706   279.00000  27.73702             12.96484
683.10127   518.60338   237.00000  18.38877             16.53022
684.26984   785.94180   189.00000  17.60728             13.81213
687.13974   317.65939   229.00000  20.19789             14.55028
681.44000   695.41333   75.00000   9.97954              9.62035
688.21757   432.69038   239.00000  19.52497             15.61296
691.86496   493.07664   274.00000  24.14971             14.59916
690.90763   1295.74297  249.00000  22.21768             14.32247
690.40566   222.08491   212.00000  17.15201             15.80434
691.13826   721.07074   311.00000  24.20180             16.62204
690.68159   1213.31841  201.00000  20.78822             13.00397
691.41569   1013.79216  255.00000  20.63425             17.01150
699.28895   1093.94051  353.00000  27.27171             17.42829
695.83893   646.28859   298.00000  22.29583             17.06975
691.94681   1175.12766  94.00000   12.90318             9.29023
702.18182   815.62987   308.00000  27.74974             14.30685
699.59070   181.40465   215.00000  18.10566             15.23952
697.25694   994.36806   144.00000  17.73047             10.36908
703.86977   696.44651   215.00000  21.47732             12.96608
705.49438   1164.05618  178.00000  16.98797             13.35212
706.96018   1214.77434  226.00000  17.67431             16.72632
707.29565   766.45217   230.00000  23.72369             12.61173
712.23585   1137.44025  318.00000  27.20481             15.51167
707.53097   1238.61062  226.00000  20.05520             14.71568
711.04525   913.62443   221.00000  20.01693             15.03183
716.11111   994.13095   252.00000  22.06416             14.87310
716.94093   509.57806   237.00000  21.01126             14.39094
715.89773   395.85227   264.00000  23.18228             14.90186
712.23077   835.84615   39.00000   8.72663              5.67042
719.78947   867.28070   171.00000  15.88133             13.76624
722.65152   1247.75253  198.00000  18.86063             13.54306
721.41525   1170.22881  354.00000  35.67797             12.96866
723.30682   771.23295   176.00000  16.70187             13.44485
723.76151   1775.62762  239.00000  19.89052             15.38895
725.15190   1875.87764  237.00000  24.69335             12.26402
725.42920   318.45133   226.00000  18.18069             15.86333
727.53516   459.46094   256.00000  21.15077             15.84222
730.68493   583.55137   292.00000  25.40039             14.77264
729.38272   1224.16049  243.00000  21.99787             14.21024
730.82283   403.61811   254.00000  19.02432             17.07312
730.66245   657.70464   237.00000  20.51515             15.43772
732.36449   928.82710   214.00000  20.97527             13.16376
734.92661   228.66055   218.00000  21.57775             13.24412
734.05469   708.99609   256.00000  21.01062             15.58663
735.97518   475.75177   282.00000  22.82799             16.10033
735.36771   671.00000   223.00000  19.81507             14.84018
733.45981   978.42122   311.00000  31.82319             12.80757
732.43220   118.12712   118.00000  15.17876             10.19731
736.91304   335.48792   207.00000  19.06191             13.99304
742.56327   1253.95510  245.00000  20.62874             15.28744
739.93043   1341.38261  115.00000  12.65218             11.62935
744.99582   568.48536   239.00000  17.93710             17.20700
746.78947   1006.43750  304.00000  22.78707             17.37447
752.14235   860.39146   281.00000  26.69890             13.45221
752.43007   1270.23427  286.00000  21.11776             17.96325
747.91964   1329.36161  224.00000  19.36179             15.04745
754.85926   537.31852   270.00000  25.91750             13.68868
752.12692   936.58462   260.00000  20.96098             15.95437
752.73307   1021.87251  251.00000  23.01277             14.28037
750.94475   1295.90608  181.00000  18.30268             12.64665
754.84270   899.09738   267.00000  23.49097             15.55229
749.76596   1192.70213  47.00000   9.13441              6.68203
759.97376   196.47230   343.00000  28.16354             15.95964
755.97500   1200.58125  160.00000  16.87457             12.26104
758.60092   420.87156   218.00000  20.72865             13.67603
761.81818   1160.05818  275.00000  25.15614             14.19487
765.21510   355.42334   437.00000  33.36217             16.94109
760.26471   1212.40000  170.00000  15.91891             13.69032
763.12670   1362.21267  221.00000  18.06020             15.62970
770.75610   454.24797   492.00000  34.17909             19.15960
766.55517   696.95862   290.00000  21.72063             17.54601
766.80973   432.00442   226.00000  17.89872             16.29087
773.18692   849.39875   321.00000  24.13561             17.16736
780.03756   965.18779   426.00000  31.51585             18.37443
778.58912   396.03927   331.00000  21.02615             20.43950
781.02778   866.57937   252.00000  18.51341             17.58781
781.61049   1831.35206  267.00000  23.64477             14.57478
785.73305   84.58898    236.00000  19.01785             16.00965
784.52471   987.73764   263.00000  21.34064             15.79811
787.30980   144.32549   255.00000  18.39354             17.69191
789.12272   596.20104   383.00000  25.57585             19.47258
789.47727   1096.07727  220.00000  22.96317             12.74106
790.12805   414.07317   164.00000  16.33930             12.85173
795.61212   701.64848   330.00000  34.38487             13.24133
792.03887   477.16608   283.00000  20.84232             17.53144
792.77256   1260.91697  277.00000  22.21351             16.27398
800.15924   437.41189   471.00000  36.98669             19.92956
793.75824   1132.35165  182.00000  18.50131             12.75022
795.91346   1331.33173  208.00000  18.03269             14.68971
802.83036   927.21429   336.00000  22.15149             19.74293
803.78846   1178.90865  208.00000  18.62011             14.40285
808.34768   499.41722   302.00000  25.74064             15.94979
804.08145   403.35294   221.00000  19.82616             14.23178
805.23810   21.20106    189.00000  18.55922             13.02466
807.34884   540.51163   215.00000  21.62806             12.71032
808.38095   715.65306   147.00000  17.43892             10.90170
811.15232   953.59934   302.00000  25.21301             15.90161
808.36842   1352.64912  228.00000  18.40349             15.85609
811.14325   56.12948    363.00000  24.89707             18.72439
813.80657   880.07299   274.00000  25.01950             14.00617
815.35714   1025.56303  238.00000  23.21097             13.61982
819.56400   1206.62800  250.00000  19.44598             16.49892
818.98429   1457.62827  191.00000  17.91665             13.62949
820.36449   729.14019   214.00000  23.29535             12.01591
825.01456   1060.56311  206.00000  20.64054             12.77885
823.36723   471.92655   177.00000  17.65851             12.83932
824.09184   1394.38776  196.00000  18.76819             13.35199
829.51653   87.34298    242.00000  17.87812             17.47841
829.47521   1472.85124  242.00000  18.55493             16.89184
829.89243   131.31076   251.00000  23.22625             13.82670
831.92982   1490.53801  171.00000  16.74077             13.13699
832.88034   50.73504    234.00000  20.31836             14.71437
838.27273   924.73392   451.00000  30.93922             21.49652
834.07653   1080.17347  196.00000  24.53344             10.38367
836.48161   104.46823   299.00000  23.29568             16.38925
835.25410   730.35656   244.00000  20.60894             15.27694
834.72081   1161.05584  197.00000  18.83584             13.53526
835.18033   180.98361   244.00000  19.99949             15.87309
837.09821   1400.77679  224.00000  19.91978             14.45068
842.78037   407.81776   214.00000  18.29511             15.17452
845.38132   760.56420   257.00000  22.73952             14.89184
845.70956   996.69485   272.00000  20.22403             17.16449
844.64246   498.36872   179.00000  21.04120             10.89398
846.87764   1257.99578  237.00000  21.87121             13.84883
846.86283   1503.49115  226.00000  20.52267             14.13979
851.80476   397.84762   210.00000  20.49350             14.15516
854.34722   1168.59375  288.00000  24.09247             15.32010
852.51154   1307.78077  260.00000  21.26001             15.70235
851.41860   220.06512   215.00000  18.41918             14.91314
854.73092   1530.63052  249.00000  20.17766             16.32775
855.94527   628.73632   201.00000  20.53629             12.52682
856.39234   1438.21053  209.00000  21.07056             12.78524
855.98295   505.99432   176.00000  18.57933             12.11624
862.15357   549.40357   280.00000  23.14676             15.87410
859.06211   952.36025   161.00000  15.57620             13.23702
860.15667   1024.01667  300.00000  23.96103             16.49824
864.45578   1234.82653  294.00000  26.45778             14.25963
863.62332   525.13901   223.00000  20.03195             14.31541
865.03546   402.56028   141.00000  15.07415             11.91504
867.21014   744.32609   276.00000  22.10089             16.28143
866.23111   461.38222   225.00000  22.36970             12.98803
870.04854   914.59871   309.00000  22.54374             17.75417
867.58378   1156.48649  185.00000  17.46971             13.59300
867.84106   718.52980   151.00000  15.53670             12.42810
873.58803   1100.70775  284.00000  26.50110             13.85553
871.09890   1543.73077  182.00000  16.83725             13.82877
874.85490   1764.86275  255.00000  24.18515             13.55342
877.45161   963.60932   279.00000  21.49145             16.76562
874.80328   621.74863   183.00000  17.98997             12.96901
878.46316   1473.67018  285.00000  23.49629             15.82007
881.03891   481.63813   257.00000  19.56707             16.99458
882.85271   1315.15504  258.00000  20.39663             16.18851
884.07213   163.38689   305.00000  26.02945             15.17773
882.94961   993.50000   258.00000  22.21953             14.82468
884.25381   417.07614   197.00000  18.10356             13.99023
883.05455   49.61818    165.00000  17.44260             12.18817
882.52344   68.39844    128.00000  15.09705             11.13128
886.80892   1058.68790  314.00000  28.22514             15.21568
887.33023   556.95349   215.00000  17.49332             15.74446
890.12146   244.45344   247.00000  20.78684             15.25628
890.13559   1503.33051  236.00000  22.75701             13.23870
891.77474   932.58362   293.00000  23.13080             16.57092
894.68750   1276.89338  272.00000  21.40196             16.29795
892.38278   1561.83254  209.00000  18.15661             14.72504
895.13542   1294.08333  192.00000  17.43505             14.16385
894.55147   96.31618    136.00000  15.31072             11.38880
897.88235   701.28483   323.00000  22.23438             19.13456
901.48889   1168.82222  315.00000  25.01931             16.36884
899.63158   292.83282   323.00000  26.53994             15.76089
905.72500   821.95000   320.00000  27.38479             15.08056
903.99649   679.05263   285.00000  20.37835             17.89809
903.79153   1344.63844  307.00000  25.30341             15.54145
906.51250   1030.40833  240.00000  20.59087             14.95814
912.43023   636.74419   344.00000  28.58731             15.68184
908.78968   1104.63095  252.00000  24.36835             13.26632
909.82390   1233.49057  318.00000  30.85661             13.45110
908.39231   1452.66538  260.00000  20.36938             16.28507
909.93798   509.69767   258.00000  19.46113             17.22144
911.33871   736.81613   310.00000  23.04012             17.99325
908.83240   142.66480   179.00000  18.90349             12.08202
915.28340   558.53846   247.00000  26.97675             11.79304
914.98958   526.17361   288.00000  22.01070             17.05841
920.58495   979.99355   465.00000  34.15475             18.62093
915.16000   1468.65778  225.00000  18.04469             15.92870
911.00000   1495.00000  39.00000   7.97556              6.17527
916.03943   183.00000   279.00000  26.92244             13.34528
918.30627   376.98155   271.00000  20.67282             16.91827
920.24932   453.07397   365.00000  28.33426             16.91721
918.17600   1054.02000  250.00000  21.50551             14.86106
918.98969   1628.10309  194.00000  20.89787             11.82929
924.99190   585.91903   247.00000  21.44114             14.75610
922.69538   1374.97538  325.00000  27.61004             15.10763
923.88477   1481.73251  243.00000  18.22245             17.31103
924.38182   1551.84545  220.00000  19.29347             14.70782
929.85862   1717.24138  290.00000  22.43747             16.83257
930.12121   1522.10823  231.00000  17.99607             16.61418
935.41389   1026.25556  360.00000  27.08472             18.04959
937.41962   1342.37057  367.00000  23.64511             19.88395
934.85340   1658.67539  191.00000  17.56906             14.00971
935.87736   1638.97170  106.00000  13.58438             10.05474
938.88806   1619.60448  134.00000  15.38364             11.24682
936.93333   1630.08333  60.00000   9.65395              8.11290
946.00312   442.24063   320.00000  20.75024             19.86457
943.30928   1557.72165  291.00000  26.67966             13.96840
946.39016   694.92131   305.00000  29.79202             13.44422
952.50000   559.69841   252.00000  25.07320             13.01672
947.97076   612.98246   171.00000  17.48625             12.70040
949.64050   841.21901   242.00000  20.26799             15.37174
947.92000   1628.76800  125.00000  14.22223             11.22980
950.01600   514.80800   250.00000  23.31182             13.71121
946.27500   1053.20000  40.00000   7.72290              6.67134
954.72932   1174.90226  266.00000  20.52035             16.58233
956.90558   538.88841   233.00000  20.26204             14.68965
959.68750   1122.78333  240.00000  27.40362             11.24255
962.56809   1608.39300  257.00000  25.29410             13.90510
957.91837   1580.29082  196.00000  16.44443             15.28099
963.15289   654.98347   242.00000  26.34208             11.99438
962.24746   790.21017   295.00000  22.98090             16.69127
965.67063   1375.83730  252.00000  28.85319             11.82950
967.81343   1360.72388  268.00000  28.38403             12.40979
962.91837   610.34286   245.00000  20.09841             15.72029
963.21538   1286.60000  195.00000  19.13720             13.33219
963.44615   1568.00000  195.00000  19.60894             12.74592
963.29767   1503.27442  215.00000  17.41122             16.14394
964.42017   719.35714   238.00000  21.02511             14.46655
967.26502   1591.57951  283.00000  23.73290             15.42353
964.96439   341.27300   337.00000  29.37991             14.82280
971.40889   1057.08000  225.00000  20.50253             14.10492
970.91080   855.17840   213.00000  19.09656             14.25124
971.75309   1519.67078  243.00000  18.54711             16.73305
971.75000   1684.68220  236.00000  21.17437             14.26670
977.31765   564.92059   340.00000  22.36473             20.03726
974.52564   735.90598   234.00000  18.82575             15.84335
983.40210   827.45105   286.00000  25.61665             14.26576
984.04610   1664.39716  282.00000  22.47843             16.18748
986.20385   1450.77692  260.00000  21.43399             15.53507
984.91477   1345.12500  176.00000  17.31419             12.93121
984.47097   1688.64516  155.00000  16.19751             12.19411
990.50000   679.23140   242.00000  23.99527             12.91542
989.14130   1559.66848  184.00000  16.33518             14.43566
996.00323   771.66774   310.00000  24.52909             16.26283
996.63664   1152.23123  333.00000  24.42992             17.47398
999.45483   303.35202   321.00000  24.15904             17.63479
998.71542   920.54545   253.00000  20.15063             16.56246
998.77500   1488.83750  240.00000  20.16724             15.20033
1008.23934  1202.42623  305.00000  36.05878             11.91087
996.75321   801.60577   312.00000  33.55756             11.99864
999.96552   1658.17816  174.00000  17.01864             13.11838
1001.35000  589.98182   220.00000  21.82412             13.05919
999.69388   883.44898   196.00000  20.51170             12.22971
1004.60426  1706.74043  235.00000  19.72507             15.50901
1004.14726  852.59932   292.00000  24.34314             15.30341
1012.58502  904.99798   494.00000  33.27192             20.42596
1006.90244  1504.63415  205.00000  16.58684             15.76063
1009.73611  329.92361   288.00000  21.91237             17.13594
1010.01754  1070.00439  228.00000  21.93476             13.53558
1010.03252  1447.06504  246.00000  23.54402             13.36910
1009.21739  611.69565   184.00000  18.72268             12.59077
1010.46429  1322.59524  336.00000  26.01857             17.33183
1013.95223  1614.61146  314.00000  24.39792             16.49386
1019.34915  1436.47119  295.00000  25.08630             15.20287
1019.44554  844.59406   202.00000  17.09965             15.16402
1019.47727  1643.84659  176.00000  16.23584             14.03612
1025.08197  1366.01230  244.00000  22.67846             13.84234
1021.19681  1586.12234  188.00000  15.92722             15.02681
1022.98661  621.00000   224.00000  20.35520             14.23347
1020.33962  1076.00000  53.00000   9.38705              7.20587
1028.83768  965.43478   345.00000  29.88377             15.42673
1024.22857  890.40000   35.00000   7.54165              5.90028
1028.13725  1731.43137  153.00000  15.94237             12.61289
1030.85849  1682.60377  212.00000  18.87113             14.45850
1032.01639  1534.06011  183.00000  16.72585             14.14863
1034.01172  1567.33203  256.00000  24.64251             13.38302
1035.33333  1617.81720  186.00000  16.62054             14.30783
1037.60581  1499.43568  241.00000  19.22361             16.01763
1040.62911  1517.01408  213.00000  19.75964             13.83710
1042.40708  1185.64602  226.00000  21.69937             13.89542
1038.63559  1733.35593  118.00000  15.38171             9.89078
1046.61058  1692.14423  208.00000  18.05899             14.84659
1049.80952  1203.44444  189.00000  22.42203             10.79724
1053.57241  364.54483   290.00000  24.33236             15.33397
1051.54545  961.90909   242.00000  22.05012             14.22396
1050.98876  1601.63483  178.00000  18.03034             12.77139
1055.37288  1385.75424  236.00000  21.73215             13.87282
1058.09593  873.52035   344.00000  26.10854             17.18313
1065.03133  1076.09922  383.00000  31.89153             17.90692
1058.40741  1236.07037  270.00000  23.64838             14.75041
1057.29843  689.66492   191.00000  18.66966             13.07138
1056.44231  1574.12019  208.00000  18.49698             14.34601
1053.93548  1002.64516  31.00000   8.01682              4.89612
1057.80625  1612.34375  160.00000  15.83101             12.95716
1058.43243  1702.61486  148.00000  15.89903             11.88760
1061.56855  1738.71774  248.00000  20.17706             15.71687
1063.58451  935.92958   142.00000  18.29561             10.20940
1059.11111  1062.81481  27.00000   6.86728              5.05724
1069.36493  927.08531   211.00000  21.49827             12.89380
1064.09896  1630.05208  192.00000  16.16748             15.14362
1068.72340  1657.03723  188.00000  16.16727             14.82130
1067.30435  1691.54348  184.00000  16.37963             14.50412
1072.25000  1588.77222  180.00000  16.36421             14.16350
1074.63590  1347.19487  195.00000  18.53445             13.61454
1075.98084  1010.76628  261.00000  22.52984             14.96976
1076.57714  1242.46286  175.00000  18.73174             12.52741
1077.29457  1396.08527  258.00000  23.49130             14.23022
1076.81068  1219.78641  206.00000  21.83659             12.46649
1081.07755  1368.45306  245.00000  20.54346             15.39223
1076.85149  1569.43564  101.00000  13.26785             10.07204
1082.02574  976.46324   272.00000  22.07279             16.10246
1080.66438  1578.75342  146.00000  15.26155             12.62452
1082.12903  1692.75403  248.00000  25.85355             12.34341
1085.72646  1302.70404  223.00000  18.98849             15.05134
1090.58784  1271.11486  296.00000  21.42468             18.13463
1092.42056  685.58879   214.00000  18.65217             14.92349
1095.00625  1023.05313  320.00000  31.48802             13.01956
1091.16245  995.58484   277.00000  22.76184             15.86827
1095.74545  352.31515   165.00000  16.58614             12.71011
1097.49854  1045.10204  343.00000  22.42623             20.20015
1096.44240  1084.55760  217.00000  19.54646             14.16509
1094.56508  1464.98095  315.00000  30.19784             13.65717
1096.44974  1061.26984  189.00000  18.42167             13.52668
1102.44380  1714.05187  347.00000  26.11154             17.89616
1108.03226  964.09677   341.00000  33.04828             14.06007
1107.52016  1526.51613  248.00000  21.33815             14.98478
1110.27976  335.78571   168.00000  16.71640             12.79894
1111.70238  1261.27381  168.00000  20.28109             10.89184
1110.20603  1763.93970  199.00000  20.17198             12.60104
1116.81395  1390.49225  258.00000  21.10272             15.77889
1119.07143  1088.03247  308.00000  29.65989             13.51037
1118.79184  1591.07755  245.00000  26.64293             12.10133
1123.58306  1667.62215  307.00000  23.51812             16.84751
1126.42222  1016.98519  270.00000  21.30424             16.29495
1125.20870  1266.20000  115.00000  13.18597             11.18821
1130.56054  342.64574   223.00000  21.00612             13.70523
1144.19455  1135.10506  257.00000  18.98607             17.55547
1146.38333  676.21250   240.00000  22.13404             13.99085
1142.73171  1659.90244  123.00000  16.71838             9.50336
1146.87542  954.24242   297.00000  20.78384             18.27368
1145.30256  1789.61026  195.00000  18.45462             13.47452
1153.43686  1386.92150  293.00000  24.86904             15.23344
1152.07975  1058.33742  163.00000  16.05943             13.02002
1152.82645  1669.19835  121.00000  15.23538             10.48391
1154.74396  1089.69082  207.00000  17.43117             15.24458
1160.06436  331.43069   202.00000  18.33181             14.08600
1164.09174  1012.23853  218.00000  19.88891             14.58449
1165.28632  1068.91026  234.00000  24.76528             12.47258
1169.40141  1106.07042  142.00000  19.23861             9.60378
1166.98522  1654.85714  203.00000  18.24935             14.22794
1170.15566  1689.16981  212.00000  17.60673             15.45362
1180.00588  1620.95294  170.00000  16.14047             13.45895
1182.81754  1819.07719  285.00000  26.91081             13.59700
1187.70370  1127.16296  135.00000  16.44506             10.45754
1189.99620  994.27376   263.00000  20.51715             16.43860
1191.53571  1061.09091  308.00000  22.38823             18.24698
1193.84699  1612.23497  183.00000  18.03001             12.97158
1196.22131  1116.16393  122.00000  15.67799             10.30376
1199.09362  1787.37447  235.00000  19.54539             15.38838
1199.08176  649.23270   159.00000  16.49108             12.45578
1205.87854  1232.35628  247.00000  21.37646             14.87719
1214.23600  341.22400   250.00000  22.38210             14.34446
1215.51948  1708.91342  231.00000  21.75806             13.60679
1218.22989  1086.71648  261.00000  22.53944             15.01172
1215.87565  1615.86010  193.00000  21.01765             11.83560
1218.17057  1149.98328  299.00000  23.47836             16.71647
1224.76109  1043.26621  293.00000  26.61593             14.25233
1226.57085  1057.57085  247.00000  19.13420             16.52789
1230.58152  323.28804   184.00000  16.46950             14.40169
1236.28469  1197.97368  418.00000  29.16719             19.04781
1233.97917  1887.25000  240.00000  19.54403             15.99658
1238.51915  1108.23404  235.00000  18.17121             16.68141
1238.12376  1634.05941  202.00000  17.68040             14.59327
1240.68240  1820.27039  233.00000  20.49106             14.64641
1244.69186  1044.76744  172.00000  15.03090             14.69897
1247.20130  1598.31818  154.00000  16.26956             12.10536
1249.22222  618.50980   153.00000  15.18731             13.01200
1257.82418  1155.91575  273.00000  26.12870             13.99090
1256.41765  1923.40000  170.00000  20.05135             11.24820
1259.24742  1587.98969  194.00000  18.42357             13.47174
1259.87654  1722.46914  162.00000  16.13638             13.01661
1263.37931  1044.01724  58.00000   9.71855              7.61588
1269.39785  1063.28674  279.00000  24.62141             14.63153
1272.52174  1714.65217  207.00000  17.08084             15.44953
1277.26071  1137.31071  280.00000  23.18419             15.82687
1277.07059  298.41569   255.00000  21.09881             15.47356
1278.08678  1543.09091  242.00000  19.36275             16.06716
1278.71649  1124.46907  194.00000  18.29847             14.30697
1279.23228  1047.88583  254.00000  19.12271             17.05913
1283.28400  579.76000   250.00000  25.34792             12.70240
1291.34232  1167.68194  371.00000  28.43235             16.94418
1289.64591  1226.30350  257.00000  24.23134             14.12316
1292.12108  1636.20179  223.00000  19.48057             14.87158
1300.22045  1043.52716  313.00000  24.88518             16.15467
1307.32997  1245.39394  297.00000  24.19384             15.87690
1308.80769  1561.52448  286.00000  23.78876             15.64679
1313.59504  269.23554   242.00000  19.18207             16.18206
1311.77206  1158.50735  272.00000  24.11846             15.43288
1318.84836  1180.89754  244.00000  23.86669             13.27426
1325.49187  555.54065   246.00000  23.29481             13.70386
1326.29379  1562.22599  177.00000  19.76117             11.88926
1327.53077  1072.45385  260.00000  21.58600             15.62133
1329.68750  269.25962   208.00000  18.01290             14.92707
1337.17628  1578.81731  312.00000  27.37682             14.92345
1339.24832  1662.91275  298.00000  27.95863             13.71320
1350.62112  1091.90373  322.00000  24.27986             17.05508
1353.11888  1203.86014  286.00000  20.13668             18.49181
1355.23695  1267.41365  249.00000  22.91738             15.21337
1354.64055  1972.50230  217.00000  18.57072             15.03272
1357.17588  1220.01508  199.00000  19.44517             13.10797
1358.85141  538.54217   249.00000  19.39850             16.68246
1363.18939  235.46212   132.00000  15.04565             11.51289
1365.10526  246.41447   152.00000  16.06823             12.08922
1369.15306  1109.23469  196.00000  16.97393             14.75573
1371.45982  1702.37946  224.00000  20.47973             13.95020
1379.18462  1294.05000  260.00000  21.42895             15.49092
1381.47321  1327.40179  224.00000  18.46877             15.46965
1383.83268  220.73541   257.00000  23.67852             13.94154
1387.23005  1105.34272  213.00000  17.89129             15.33942
1389.01075  1620.45878  279.00000  22.43746             16.19153
1391.94323  508.72926   229.00000  21.31042             13.94107
1392.17881  1558.13245  151.00000  15.96551             12.19675
1400.50515  1234.02320  388.00000  25.72943             19.45886
1400.08571  1698.23333  210.00000  21.07017             12.88528
1398.74074  1120.33333  54.00000   9.86506              7.01147
1405.13004  1319.05830  223.00000  20.15037             14.27551
1408.38967  1708.95305  213.00000  19.27667             14.16043
1409.26368  1631.14925  201.00000  22.93319             11.22732
1418.26596  493.32270   282.00000  26.87601             13.83960
1421.86747  1116.37751  249.00000  20.77494             15.43666
1420.38164  1372.05314  207.00000  17.07368             15.59846
1432.52968  1723.84018  219.00000  19.09152             14.74300
1430.14062  2011.80469  128.00000  14.88089             11.21416
1436.32900  1268.17316  231.00000  20.49717             14.51647
1436.90086  1392.84483  232.00000  20.79915             14.37999
1440.53604  1120.83333  222.00000  21.83734             13.27595
1443.10180  1354.36228  334.00000  24.79976             17.91931
1441.63902  1862.76585  205.00000  20.81682             12.69800
1445.26316  1670.88947  190.00000  18.80734             12.91640
1447.40000  1570.97931  145.00000  18.66620             10.02132
1447.75701  1948.14953  107.00000  14.01318             10.05458
1451.29070  451.93411   258.00000  21.28838             15.61416
1451.20853  1709.89573  211.00000  19.18506             14.16130
1452.54789  1800.79693  261.00000  20.58007             16.40839
1458.30605  205.60498   281.00000  25.38986             14.33162
1456.59935  1426.53094  307.00000  24.12844             16.89294
1456.96396  1560.19369  222.00000  17.74896             16.08850
1457.75207  1758.20248  242.00000  21.36515             14.47277
1459.36555  130.64706   238.00000  18.62923             16.27331
1462.93307  1144.64567  254.00000  21.14060             15.48184
1461.25157  1828.71698  159.00000  15.89818             12.87180
1464.28729  1871.03867  181.00000  17.32042             13.35640
1471.52482  1402.15957  282.00000  22.34786             16.32602
1474.78636  1281.68182  220.00000  20.43478             13.97389
1480.36071  1475.99286  280.00000  31.98036             11.58459
1476.80741  1901.46667  135.00000  13.97613             12.32872
1482.63821  1156.58130  246.00000  23.00262             13.78922
1479.33533  454.92216   167.00000  15.36984             13.86864
1481.67442  150.06047   215.00000  18.89958             14.68460
1486.31561  205.35216   301.00000  21.51834             18.19900
1485.26425  1274.68394  193.00000  21.18199             11.69237
1485.84574  1746.92553  188.00000  22.00361             11.30098
1484.54730  9.02027     148.00000  15.80980             11.90763
1492.72626  1423.02793  179.00000  17.97577             12.68950
1493.03933  19.20787    178.00000  15.84094             14.31077
1497.77880  163.65899   217.00000  17.85314             15.56863
1501.22348  1698.20455  264.00000  23.74561             14.54601
1501.22951  460.09836   183.00000  17.50221             13.54037
1498.20588  353.11765   34.00000   6.89398              6.29074
1504.48133  245.45228   241.00000  20.37460             15.25454
1510.39303  1652.09453  201.00000  20.93881             12.53955
1511.65919  1305.71749  223.00000  18.54475             15.42483
1515.90909  1614.95187  187.00000  17.07998             14.33735
1517.32432  295.47490   259.00000  21.92255             15.15054
1523.01546  1553.58763  194.00000  21.73947             11.37780
1528.42105  1600.39474  114.00000  15.42707             9.39813
1534.46649  244.05898   373.00000  26.82365             17.97228
1538.86702  446.68085   188.00000  17.17588             13.94868
1541.46032  374.48148   189.00000  17.76799             13.61889
1542.01460  139.08759   137.00000  17.19947             10.20632
1545.48571  340.08980   245.00000  25.93719             12.04054
1549.39352  236.26852   216.00000  19.20146             14.38255
1552.10676  206.48043   281.00000  24.11524             15.09837
1555.81622  173.83243   185.00000  21.15055             11.30269
1557.84332  1633.74194  217.00000  17.64855             15.69265
1560.10811  1577.23784  185.00000  19.51039             12.23922
1560.62437  417.28426   197.00000  16.27405             15.83515
1564.82648  77.75799    219.00000  22.85610             12.62370
1563.74809  429.39695   131.00000  13.52823             12.34431
1567.14394  284.66667   264.00000  22.09293             15.31406
1567.35385  340.34615   130.00000  15.53412             10.75895
1573.09091  262.79091   220.00000  18.11657             15.59878
1578.77778  1523.46914  243.00000  24.81955             12.78081
1574.84541  131.10145   207.00000  19.62656             13.50719
1578.08519  415.12222   270.00000  21.42075             16.11245
1581.13830  388.25887   282.00000  20.89942             17.23160
1583.86301  340.08219   219.00000  21.06294             13.48765
1585.53175  453.88492   252.00000  19.59452             16.46405
1585.71660  245.93117   247.00000  21.13931             14.94374
1594.29491  1554.43700  373.00000  32.97039             14.86534
1585.72727  309.89091   110.00000  12.99764             10.83467
1591.23636  298.19394   165.00000  15.76851             13.69243
1599.52153  111.76077   209.00000  20.10386             13.32346
1598.52151  1705.02688  186.00000  20.99115             11.85929
1599.21032  140.86508   252.00000  27.80008             12.01842
1597.59524  210.96429   84.00000   11.74000             9.31497
1604.41243  1797.80791  177.00000  16.69857             13.58520
1608.79464  1541.01786  224.00000  18.78314             15.26245
1606.57639  252.11806   144.00000  16.10138             11.42543
1606.85714  497.33673   196.00000  25.59220             10.20006
1611.00741  310.92593   135.00000  15.97420             10.77288
1613.41808  367.00565   177.00000  17.13468             13.18152
1613.74167  206.08333   120.00000  13.12329             11.83499
1617.17949  532.30256   195.00000  17.47910             14.38048
1617.61594  220.48551   138.00000  15.35708             11.58208
1624.97414  262.58190   232.00000  19.18202             15.57853
1628.42692  1613.25000  260.00000  20.49332             16.27787
1629.00000  191.86885   122.00000  16.23165             9.83117
1634.35836  554.30717   293.00000  20.91710             19.00393
1633.25701  363.97196   214.00000  20.30787             13.46985
1631.92079  1765.19802  202.00000  20.01199             13.21492
1634.67089  231.39241   158.00000  16.55462             12.27640
1638.79916  1522.19247  239.00000  25.37180             12.06347
1638.20339  1724.57627  118.00000  13.92663             11.09309
1639.58911  100.73267   202.00000  19.93260             12.95366
1646.47511  77.67421    221.00000  19.07874             14.78149
1647.07755  334.35918   245.00000  19.83893             16.09599
1646.78030  1593.89015  264.00000  22.33881             15.57232
1644.61871  152.02158   139.00000  14.84566             12.00987
1645.72000  1570.73333  75.00000   11.02448             9.00456
1654.42236  299.11180   161.00000  16.32539             12.74860
1655.21387  361.86705   173.00000  16.29682             13.57787
1657.92857  205.41837   196.00000  18.09850             13.85092
1662.40000  290.44762   105.00000  13.25340             10.39004
1664.75333  341.05333   150.00000  14.24771             13.44360
1677.69000  213.75000   200.00000  19.04987             13.44636
1675.11111  362.05926   135.00000  14.91743             11.58935
1678.81176  171.67647   170.00000  18.19530             11.97478
1677.29688  315.12500   64.00000   11.00742             7.41124
1684.17949  252.00000   117.00000  16.23542             9.68381
1685.09783  181.61957   92.00000   11.44800             10.31865
1687.94767  1560.00581  172.00000  17.95575             12.24413
1690.95575  1706.83628  226.00000  20.26520             14.31298
1696.34545  376.90909   165.00000  16.36801             12.84728
1702.59836  1549.58197  244.00000  19.98666             15.65223
1705.91912  443.79779   272.00000  22.13244             15.92397
1706.07979  402.72340   188.00000  21.48197             11.83247
1703.55063  1866.81013  158.00000  16.67362             12.15117
1706.57732  205.14433   97.00000   11.41854             10.84627
1712.16304  218.60326   184.00000  18.40842             12.92165
1712.51266  310.02532   158.00000  15.98583             12.67251
1720.65611  370.83710   221.00000  21.80357             13.11997
1719.86139  131.22772   101.00000  14.09107             9.13202
1722.70968  151.37097   124.00000  14.04147             11.30499
1731.16889  1305.08000  225.00000  21.46520             14.34751
1729.19412  271.85882   170.00000  19.21268             11.35204
1738.42045  417.42045   352.00000  25.44412             17.86142
1741.11570  257.77686   121.00000  15.07294             10.26721
1745.55591  1634.29712  313.00000  22.54098             18.23527
1745.75000  293.17262   168.00000  17.17539             12.51306
1748.65759  485.01946   257.00000  19.43729             16.95630
1751.83281  1143.68454  317.00000  25.77559             15.97719
1752.87243  1281.66667  243.00000  20.07313             15.59052
1752.98485  458.13636   198.00000  18.37853             13.73447
1752.16471  1589.80588  170.00000  16.72631             12.99206
1752.50575  121.25287   87.00000   11.07905             10.28116
1754.52137  345.48718   117.00000  13.79718             10.87240
1759.84946  361.61828   186.00000  17.57754             13.64341
1758.50350  308.87413   143.00000  15.52587             11.81240
1759.20598  1177.21595  301.00000  29.16259             13.55187
1760.94915  289.75141   177.00000  18.12375             12.50501
1766.88966  1202.06207  290.00000  28.12784             14.10364
1763.71809  243.65426   188.00000  18.20203             13.22682
1766.52332  387.78238   193.00000  20.69654             12.12054
1768.07469  440.72199   241.00000  23.18369             13.40634
1769.43023  80.80814    172.00000  16.58432             13.28805
1770.53947  798.53947   152.00000  15.48781             12.60217
1774.03320  1715.89627  241.00000  21.52222             14.27902
1776.00000  416.43229   192.00000  19.30553             12.69081
1778.05729  1614.23958  192.00000  19.17276             12.99426
1785.64824  1736.04020  199.00000  16.64043             15.28309
1785.88961  1756.82468  154.00000  14.86905             13.23283
1787.24737  520.35263   190.00000  16.54102             14.68170
1790.87917  695.37500   240.00000  20.69291             15.02176
1790.04317  162.47482   139.00000  14.43301             12.36702
1792.47027  297.42162   185.00000  16.41953             14.40702
1792.42236  372.77019   161.00000  15.88869             12.90383
1803.63423  1238.87248  298.00000  23.05213             16.57191
1800.47059  315.38824   85.00000   11.27931             9.69651
1803.32934  1286.49102  167.00000  17.59735             12.07751
1803.85976  1637.00610  164.00000  14.96013             14.02007
1817.00355  708.09929   282.00000  21.31490             17.01853
1819.22172  477.48416   221.00000  19.16267             14.74555
1819.60279  445.40070   287.00000  20.36932             18.27273
1820.71809  1230.61170  188.00000  19.00594             12.76402
1822.07692  1821.95192  104.00000  12.76773             10.71697
1830.09827  1284.42197  173.00000  20.44919             10.93996
1828.28409  373.96023   176.00000  17.10681             13.17520
1830.38384  311.70707   99.00000   11.98338             10.63166
1841.13127  549.45174   259.00000  20.32159             16.49949
1845.89256  731.67355   242.00000  19.70036             15.69195
1846.04545  314.14394   132.00000  13.29778             12.67370
1847.61497  399.36364   187.00000  17.46152             13.71358
1847.99383  370.68519   162.00000  19.95027             10.58326
1853.89503  233.97238   181.00000  17.30564             13.35596
1870.43614  1208.80964  415.00000  34.69883             15.46209
1863.29412  1267.47059  119.00000  14.09785             10.79156
1872.52669  440.30961   281.00000  22.65372             16.10499
1872.90909  405.14876   121.00000  14.73493             10.48488
1876.44720  53.95652    161.00000  15.87216             13.00357
1884.02247  371.05056   178.00000  17.04072             13.30678
1889.18081  567.66421   271.00000  21.06407             16.46824
1888.29839  751.65323   248.00000  20.45411             15.72619
1887.82609  398.73913   138.00000  14.53891             12.15973
1891.96364  410.47273   110.00000  12.13013             11.55341
1899.48744  1239.87437  199.00000  18.50695             13.72127
1907.46809  1184.97872  235.00000  22.65659             13.32538
1913.01124  1165.70787  267.00000  21.76616             15.89896
1913.76433  406.61783   157.00000  16.20300             12.48368
1916.25114  590.24658   219.00000  18.54664             15.08739
1917.09756  1130.89837  246.00000  24.21314             13.19306
1918.73196  308.59794   97.00000   12.42831             9.94765
1920.00000  524.92638   163.00000  15.24597             13.61752
1935.03584  596.38710   279.00000  22.71523             15.72598
1941.37433  1234.42246  187.00000  20.25997             11.86770
1941.13360  1182.69636  247.00000  21.39494             15.07960
1946.20398  347.14428   201.00000  18.23427             14.11979
1947.50000  1209.86145  166.00000  17.87674             11.91008
1953.21681  699.01327   226.00000  24.36270             12.23824
1951.35802  265.54938   162.00000  16.31411             12.74467
1960.13178  607.56202   258.00000  20.51123             16.10637
1962.55159  1019.23413  252.00000  20.91455             15.60255
1962.81879  1237.91946  149.00000  16.68482             11.42091
1964.89714  326.76571   175.00000  17.29040             12.95510
1966.38182  1216.39273  275.00000  20.12651             17.51424
1977.54183  1143.98406  251.00000  25.44892             12.61953
1980.20158  840.09091   253.00000  23.87020             13.51884
1983.15018  664.53846   273.00000  23.33040             15.11749
1990.79268  349.97561   246.00000  22.28193             14.18309
1999.42292  1151.93281  253.00000  21.54600             15.21590
2000.76887  432.01887   212.00000  18.68062             14.62953
2004.05164  544.40376   213.00000  18.69888             14.87859
2005.31429  636.54286   140.00000  14.63827             12.45780
2011.00000  616.83974   156.00000  15.42093             12.89959
2022.70430  295.98387   186.00000  17.88888             13.24556
2024.34468  880.80426   235.00000  19.22745             15.92789
2032.47368  609.13534   133.00000  15.58952             11.01473
2035.63243  967.61622   185.00000  20.81011             11.45611
2038.26000  587.14000   100.00000  12.79969             10.28653
2038.57600  234.53600   125.00000  13.52835             11.78908