# Filename: Nuclei_416_bidi_60x_011.npz
# Voxel size (nm): (108, 108)
# Area quantity: voxels
# Num nuclei detected: 998
Y           X           AREA       MAJOR_AXIS_LENGTH    MINOR_AXIS_LENGTH
126.38983   269.65254   118.00000  12.92521             11.69527
178.77181   279.68456   149.00000  14.22915             13.40310
195.44156   312.02597   77.00000   10.98506             9.25487
210.46875   255.43750   96.00000   12.67209             9.76422
282.74157   153.94944   178.00000  16.47538             13.89174
284.75000   187.85625   160.00000  15.63121             13.13144
290.70229   214.83206   131.00000  15.14554             11.42963
350.48299   1305.73469  147.00000  13.98929             13.47960
417.35088   1057.22368  228.00000  18.83362             15.57094
430.67708   1258.34375  96.00000   15.51702             8.20547
431.51145   8.64885     131.00000  13.94629             12.11708
435.18750   1265.27344  128.00000  15.12967             10.86090
447.85827   1067.71260  254.00000  21.24539             15.45422
451.65896   1264.86127  173.00000  18.39607             12.00552
482.36413   935.95652   184.00000  19.55959             12.04562
494.69492   958.32203   236.00000  29.31116             10.37333
502.85714   1096.54286  140.00000  14.16894             12.66377
505.36441   1107.92373  118.00000  14.42158             10.43966
524.02174   940.72609   230.00000  20.16715             14.58558
531.03158   650.11228   285.00000  28.88117             13.40610
539.47938   1150.69072  194.00000  21.87258             11.34699
546.24534   1272.96894  322.00000  31.58149             13.07945
549.45000   893.14500   200.00000  20.74803             12.88499
547.33333   985.03175   189.00000  19.72636             12.60627
558.64550   1158.18519  189.00000  22.28366             10.95690
557.29231   632.33333   195.00000  17.29072             14.56652
562.89020   949.97647   255.00000  20.87357             15.66457
581.19281   1015.81699  306.00000  28.79823             13.92469
579.18966   929.06897   174.00000  19.20113             11.65987
580.04070   1130.65116  172.00000  17.85459             12.39216
588.60804   912.60302   199.00000  24.30222             10.88452
592.86290   1298.74597  248.00000  21.20408             15.02113
601.79251   1174.16715  347.00000  27.58593             16.49317
598.35507   611.87319   276.00000  23.67749             14.88703
595.96552   1163.66207  145.00000  17.77380             10.71437
598.07692   968.45299   117.00000  13.11837             11.37927
610.64530   1135.49573  234.00000  20.47246             14.93554
610.37255   1324.25000  204.00000  21.91502             11.97552
621.83258   905.37104   221.00000  19.75824             14.58976
620.35099   985.35099   151.00000  16.88306             11.53974
617.92188   1053.78906  128.00000  14.14606             11.75604
619.28889   1065.79259  135.00000  15.21038             11.77499
622.90179   958.34821   112.00000  13.60883             10.49447
628.24444   587.79444   180.00000  16.82828             13.64548
627.03731   1034.67910  134.00000  14.10625             12.15573
622.44000   1095.80000  25.00000   6.45922              4.86425
631.88043   1303.35145  276.00000  27.35977             12.95556
635.53416   1135.67702  161.00000  21.80065             9.48292
636.38636   1079.93939  132.00000  14.46868             11.70202
638.70370   1156.25926  135.00000  15.18394             11.84988
645.51402   1097.23832  214.00000  21.01517             13.35470
651.35625   891.60000   320.00000  28.11118             14.64824
642.42609   955.67826   115.00000  13.08482             11.40329
643.79375   1244.65625  160.00000  16.01023             12.81801
645.83007   1302.49673  153.00000  14.30161             13.69682
650.63229   1142.73094  223.00000  22.23473             13.02150
649.19883   1163.04094  171.00000  18.52686             11.87667
652.38806   1195.37015  335.00000  24.34707             17.93165
650.52778   942.08333   108.00000  15.37512             9.16924
650.25714   1081.82857  70.00000   10.14845             8.79907
654.94578   575.89759   166.00000  17.25674             12.30201
656.18831   553.63636   154.00000  17.93843             10.94008
658.86408   1222.03883  103.00000  13.63250             9.81035
657.04082   972.79592   49.00000   9.04732              6.88565
663.54185   1249.29075  227.00000  20.41026             14.22526
661.28571   958.57857   140.00000  14.99041             12.02128
658.15152   1108.78788  33.00000   7.78194              5.43191
659.21622   979.72973   37.00000   7.64458              6.18371
665.25150   1130.67066  167.00000  18.73918             11.48652
658.97368   1264.07895  38.00000   7.49690              6.43195
660.27451   1090.68627  51.00000   8.47372              7.64429
665.57297   1229.43243  185.00000  19.67060             12.16380
666.00820   1328.89344  244.00000  21.52707             14.57628
663.54839   989.77419   93.00000   12.11563             9.78111
662.52632   1153.75439  57.00000   9.29076              7.88092
663.58696   1012.00000  46.00000   8.53589              6.81879
667.65164   1306.79098  244.00000  26.82743             12.18475
670.32124   941.18653   193.00000  24.62431             10.96085
667.17822   1214.98020  101.00000  13.56959             9.53915
666.94737   1165.07895  38.00000   7.59436              6.41319
674.03182   534.41364   220.00000  19.31866             14.66348
674.03600   889.87600   250.00000  20.13459             16.13033
675.49451   1284.37912  182.00000  19.38063             12.27446
677.08649   1352.63243  185.00000  18.43313             12.82197
675.65000   993.08750   80.00000   11.82098             8.62449
679.48485   1073.24242  132.00000  15.18856             11.10829
675.98113   1090.35849  53.00000   9.99288              6.73803
677.50000   1213.58451  142.00000  14.90936             12.21945
681.76393   571.00000   305.00000  23.51886             16.93162
684.18026   523.12017   233.00000  18.99252             15.65319
682.48684   1024.11842  76.00000   10.33182             9.42422
682.46000   1001.70000  50.00000   8.64464              7.40572
686.78142   953.65574   183.00000  17.92219             13.09999
689.57674   781.20000   215.00000  24.83341             11.26096
688.22772   1339.03960  202.00000  18.44208             14.15981
692.73387   1314.52016  248.00000  28.80212             11.49509
689.48951   932.65734   143.00000  16.58620             11.18050
686.32609   1084.23913  46.00000   8.89180              6.59825
690.49048   491.63333   210.00000  19.50522             13.73433
691.03614   557.92771   166.00000  15.93800             13.28632
693.45230   909.58304   283.00000  25.74633             14.17175
696.85246   1362.14344  244.00000  25.02545             12.43476
699.77406   790.08787   239.00000  22.43380             13.90772
697.33898   1332.77966  118.00000  15.08797             10.36170
696.63235   1074.98529  68.00000   10.27505             8.40299
704.36486   620.16554   296.00000  21.85805             17.58785
700.13043   930.66087   230.00000  27.37632             11.04019
698.68750   990.37500   80.00000   10.78873             9.42288
697.46667   1003.13333  45.00000   8.40859              6.78676
701.62893   1259.74843  159.00000  15.64745             13.09442
699.34000   961.30000   50.00000   9.38659              6.79724
701.07317   1145.75610  82.00000   11.23033             9.29008
705.58596   837.55789   285.00000  24.27054             14.99440
707.78049   595.10244   205.00000  18.82320             13.95837
711.50996   645.19124   251.00000  22.96354             14.06450
714.64141   1365.37374  198.00000  18.45432             13.95933
714.32544   989.33728   169.00000  21.44706             10.29907
721.27318   582.71429   399.00000  28.04702             18.30287
713.85492   1308.11399  193.00000  21.11832             11.70892
714.72932   970.12782   133.00000  16.91644             10.11410
715.78626   1292.67939  131.00000  15.62112             10.83191
724.37153   717.14583   288.00000  22.22018             16.59629
721.31206   928.94326   141.00000  18.14864             10.66958
719.71154   1140.68590  156.00000  15.76320             12.64491
724.40000   1261.70222  225.00000  18.27326             15.94972
720.25424   1324.06780  59.00000   9.03262              8.36553
729.28024   446.99115   339.00000  23.35573             18.60729
725.82313   938.59184   147.00000  15.80974             11.91588
725.96377   1392.33333  138.00000  14.31074             12.52526
726.42742   1287.83065  124.00000  14.43728             11.01564
728.84756   1302.71951  164.00000  20.02754             10.74306
731.55967   1419.85597  243.00000  20.64752             15.30832
732.67660   681.95745   235.00000  19.19878             16.17622
733.82879   1178.10117  257.00000  22.11000             15.76806
730.13889   1044.61111  36.00000   7.34501              6.16353
736.62981   1338.29327  208.00000  21.69466             12.33833
734.90173   822.72832   173.00000  15.56785             14.15706
734.24615   1024.95385  130.00000  16.07515             10.38496
732.49296   1239.61972  71.00000   9.97500              9.09351
738.81588   863.59928   277.00000  26.03732             13.62364
736.62667   1367.36667  150.00000  14.74752             13.07605
735.65000   1000.33000  100.00000  13.04475             9.75972
736.62366   1356.92473  93.00000   13.55401             8.97767
739.73840   645.81857   237.00000  20.35028             14.88663
739.60000   1262.23636  165.00000  16.63738             12.92536
738.44186   1289.55814  43.00000   8.56313              6.34342
746.61411   1400.23237  241.00000  24.12458             12.84132
740.71429   1320.52381  63.00000   9.36860              8.56682
747.49741   887.51295   193.00000  19.78756             12.65378
746.19608   948.10784   102.00000  13.84061             9.65833
752.34156   958.85597   243.00000  18.98128             17.07638
749.51092   1313.52402  229.00000  21.94488             13.57048
753.92977   595.46154   299.00000  21.52485             18.36028
747.38776   1173.89796  49.00000   8.78717              7.08326
752.45771   772.42289   201.00000  19.24400             13.38493
754.96257   454.23529   187.00000  18.36838             12.97980
754.91736   872.24380   242.00000  19.98410             16.08773
755.79042   1225.61078  167.00000  19.39680             11.01509
756.89372   1486.42029  207.00000  18.65409             14.64866
759.17181   610.90308   227.00000  17.96520             16.38560
758.00000   975.87097   93.00000   14.85434             8.02058
753.53659   1366.41463  41.00000   8.42447              6.12970
757.86525   1143.29787  141.00000  14.82009             12.20346
759.90909   1261.24242  132.00000  15.37541             11.17804
759.66176   833.27451   204.00000  18.87143             13.83267
762.82072   1600.22709  251.00000  19.09389             16.90601
760.23894   1168.56637  113.00000  13.44360             10.98280
763.57143   1015.96525  259.00000  20.82648             16.75978
764.07960   1244.55224  201.00000  19.89335             13.85318
762.51705   1577.11364  176.00000  15.54982             14.55994
759.32558   1352.27907  43.00000   9.30044              5.96515
762.17757   1367.97664  214.00000  21.18134             13.24803
763.27869   1312.32787  61.00000   9.61612              8.18096
762.75862   1343.68966  29.00000   7.51644              4.98918
766.95283   1460.89623  212.00000  17.91690             15.28544
768.95676   1277.87027  185.00000  16.29652             14.56189
769.06358   1557.58960  173.00000  15.95867             13.82447
770.21212   1488.27273  165.00000  18.90759             11.13929
773.08451   859.03873   284.00000  19.38627             19.17394
777.95111   796.59556   225.00000  18.64725             16.06841
771.93069   1292.11881  101.00000  11.56707             11.14793
776.92718   1424.78641  206.00000  19.71007             13.41421
771.65217   775.02174   46.00000   8.30025              7.01160
777.13194   1231.51389  144.00000  20.66106             9.21683
776.89394   1160.61364  132.00000  16.02415             10.77275
777.93642   1335.20809  173.00000  19.63478             11.35583
779.07860   553.23581   229.00000  17.39675             16.83461
778.20183   1041.74312  109.00000  13.23692             10.49741
784.56585   1388.87317  205.00000  18.65349             14.24775
782.60656   1287.55738  61.00000   10.50170             7.37106
793.93462   778.26154   260.00000  25.48569             13.28827
789.11236   1065.06180  178.00000  20.48499             11.07942
789.34419   940.44651   215.00000  17.95809             15.47070
786.53731   1496.43284  134.00000  15.66197             11.00254
786.29213   1180.80899  89.00000   12.86259             8.95293
789.61350   1476.86503  163.00000  17.16273             12.18612
791.11176   1085.41765  170.00000  19.06437             11.39892
788.01351   1104.44595  74.00000   10.20234             9.34462
789.76577   1354.22523  111.00000  12.68633             11.31840
789.33803   1278.50704  71.00000   10.38789             8.84025
792.37226   1339.21168  137.00000  14.33951             12.37960
797.27645   827.08532   293.00000  22.69821             16.71559
793.73469   860.72449   196.00000  16.10786             15.52063
791.89600   1045.85600  125.00000  12.92535             12.40317
791.05263   1290.92105  38.00000   7.12765              6.74342
792.05128   1363.05128  39.00000   7.94326              6.21000
804.06636   1412.75744  437.00000  29.08679             20.94854
796.46154   1272.28846  104.00000  11.67903             11.54652
794.32692   1452.96154  52.00000   9.66352              6.83584
802.71930   960.33333   228.00000  23.11500             12.80591
805.84667   464.37667   300.00000  27.39330             14.51715
800.54400   1190.29600  125.00000  14.44060             11.02670
804.50000   1391.03571  168.00000  21.48066             10.36885
802.13043   974.44928   207.00000  18.36072             14.42290
801.57895   1150.15789  76.00000   10.55605             9.14605
800.00000   1167.40000  35.00000   7.38741              6.01027
803.62500   1095.91964  112.00000  13.69836             10.44039
806.45701   1464.33937  221.00000  19.57495             14.59866
812.91246   597.62290   297.00000  30.55815             12.89755
810.76064   1323.69149  188.00000  20.52143             11.87190
806.15556   1245.82222  45.00000   8.06118              7.09868
811.77987   1448.88679  159.00000  19.47862             10.43846
815.56371   1132.17761  259.00000  26.22061             12.88209
808.53425   1206.05479  73.00000   9.95392              9.54746
815.72764   1287.47561  246.00000  22.39648             15.52123
811.62857   1369.92857  140.00000  14.35096             12.52156
817.11278   809.41729   266.00000  22.04517             15.74176
813.19310   1515.91724  145.00000  16.68441             11.24952
815.93171   1008.20000  205.00000  24.32326             11.26428
812.93651   1120.38889  126.00000  13.82327             11.61640
811.82716   1174.66667  81.00000   11.21186             9.27169
817.27734   865.01953   256.00000  21.91153             15.26919
817.15736   1222.74619  197.00000  19.59658             13.03214
816.21569   1211.15686  51.00000   8.41050              7.75912
818.92903   1436.87097  155.00000  15.17725             13.20071
823.02745   779.77255   255.00000  25.74991             13.28808
823.72222   1060.66667  144.00000  18.15902             10.13870
820.47525   1343.73267  101.00000  12.09859             10.89262
821.72941   1408.37647  85.00000   11.90906             9.09330
825.74074   1002.84444  135.00000  14.62987             11.90458
824.59459   1081.97297  185.00000  18.71041             12.98536
827.31839   1504.31390  223.00000  23.16357             12.71204
827.63694   1336.32484  157.00000  17.63991             11.99328
830.97368   688.85714   266.00000  26.16344             13.61809
830.35798   723.32685   257.00000  22.30312             14.94926
826.08974   1106.05128  78.00000   11.65860             8.77692
826.27119   1177.52542  59.00000   9.45826              7.90612
831.13063   466.35586   222.00000  19.83551             14.31944
829.06667   990.39167   120.00000  14.63970             10.48588
831.21019   1116.01274  157.00000  14.62256             13.74541
834.14054   1042.14054  185.00000  18.54804             12.86218
836.15319   616.08085   235.00000  21.58394             14.24297
832.51031   672.45876   194.00000  18.85075             13.17924
832.56250   1131.64062  128.00000  16.88680             9.83397
836.45575   1305.33186  226.00000  19.06547             15.32155
834.19620   1380.19620  158.00000  15.02666             13.52375
835.74820   924.20863   139.00000  13.58289             13.09770
838.06736   483.37824   193.00000  18.47298             13.32316
840.76667   1237.30667  150.00000  19.04989             10.21661
841.26047   935.97674   215.00000  18.20697             15.27631
843.07111   1335.61333  225.00000  23.67192             12.29031
843.96727   597.38909   275.00000  22.22420             16.37187
836.28571   1247.74286  35.00000   7.21174              6.19893
840.61719   1400.17969  128.00000  13.89812             11.74653
845.54054   727.47568   185.00000  21.90725             10.90469
852.38211   1118.83333  246.00000  28.72769             11.16196
851.57269   1512.40088  227.00000  21.25082             13.67987
849.87050   1060.69784  139.00000  15.99871             11.22862
849.76699   993.56311   103.00000  13.51094             9.85023
855.46769   1016.18154  325.00000  24.40077             17.88742
851.14815   1175.09259  108.00000  14.96229             9.36171
852.55455   984.44545   110.00000  15.77688             9.05007
853.13131   1051.67677  99.00000   16.44980             7.71866
856.39877   882.25153   163.00000  18.88635             11.20888
854.54217   1296.69880  83.00000   11.29522             9.35759
860.46970   730.21717   198.00000  21.06533             12.35696
857.79245   1038.83019  106.00000  15.25473             9.19963
861.59694   1402.79082  196.00000  18.23118             13.85634
860.83607   1464.15847  183.00000  19.70987             12.27110
859.64000   1314.74286  175.00000  18.14971             12.65925
862.31126   688.36424   151.00000  15.62698             12.31239
863.01724   1155.79885  174.00000  19.06093             11.93782
862.62637   1455.27473  91.00000   13.20006             8.87946
865.68293   703.56585   205.00000  17.88452             14.72107
865.07647   1178.18235  170.00000  18.55550             12.09023
868.36910   948.52790   233.00000  23.12400             13.06432
863.66387   1444.71429  119.00000  13.95011             10.92348
862.90909   1211.63636  55.00000   9.82039              7.27156
863.83784   1219.83784  74.00000   10.26687             9.21331
870.53265   1363.20962  291.00000  21.77909             17.48094
866.49412   1039.77059  170.00000  20.43385             11.05350
870.49324   887.39865   148.00000  15.51097             12.28937
869.12658   923.94304   158.00000  15.66362             12.89935
874.41500   1418.34000  200.00000  22.01437             11.87107
869.56738   738.18440   141.00000  15.86400             11.31373
875.77551   1064.24490  147.00000  17.92993             10.50121
876.06011   1190.50820  183.00000  17.63098             13.85866
874.53191   1485.20213  188.00000  18.18136             13.23125
874.67797   1026.49153  118.00000  13.11773             11.45782
877.25967   1126.01105  181.00000  20.28969             11.47561
879.58049   962.39024   205.00000  20.39307             12.87016
878.56725   1460.07602  171.00000  16.85177             13.02424
874.77333   1861.69333  75.00000   10.94982             8.77657
880.72984   1155.11290  248.00000  23.95000             14.49560
878.28351   1315.89691  194.00000  18.71685             13.27803
882.39382   591.77606   259.00000  19.49422             16.99092
878.09259   1015.33333  108.00000  12.76830             10.84999
879.08497   825.96732   153.00000  17.11238             11.76018
880.04839   1293.98387  62.00000   9.89995              8.00086
884.11504   1401.40708  226.00000  18.35322             15.72706
884.57325   748.07006   157.00000  16.60754             12.09831
888.67128   820.39446   289.00000  27.04039             14.30042
884.40945   837.95276   127.00000  14.17478             11.49920
885.46584   1169.94410  161.00000  19.97664             11.10517
886.00952   904.98095   210.00000  21.07008             12.93230
888.13542   1469.91667  192.00000  18.92292             13.03273
888.38614   1004.46535  202.00000  16.88236             15.32703
888.19835   1334.52066  121.00000  14.58462             10.60678
892.51987   506.19868   302.00000  25.03901             15.47781
889.47059   525.47059   187.00000  16.54819             14.46853
897.40346   937.06628   347.00000  28.11044             16.72093
889.35714   1087.38095  126.00000  15.39473             10.47619
887.24561   1295.78947  57.00000   10.47350             7.01376
890.11111   1117.05128  117.00000  14.49466             10.43942
890.90805   1302.05747  87.00000   12.53678             9.13108
893.76879   769.51445   173.00000  17.54655             12.63081
894.25000   1421.83750  160.00000  15.95750             12.92035
892.94527   1038.37313  201.00000  19.67363             13.23067
891.11364   681.79545   44.00000   7.83363              7.10531
895.83140   915.75581   172.00000  18.59776             11.95994
894.88235   1212.03529  85.00000   10.95442             10.04668
898.67188   1389.60938  192.00000  18.85864             13.27356
898.79167   971.71528   144.00000  15.02578             12.36082
900.55621   1048.91716  169.00000  17.62730             12.65121
896.95833   1132.97917  96.00000   11.97525             10.37105
900.96517   1448.42786  201.00000  18.60003             13.87886
901.24528   1346.38679  106.00000  14.23686             9.57951
903.37788   870.36866   217.00000  20.88313             13.54111
902.75962   889.12981   208.00000  19.00975             14.35714
902.57419   1148.26452  155.00000  21.99962             9.12967
903.66250   1325.57500  160.00000  17.69827             11.58700
901.62500   690.57143   56.00000   9.00003              7.91630
908.56140   1513.29532  342.00000  24.36057             18.00930
908.14978   794.53744   227.00000  22.08369             13.29105
905.01449   1249.53623  69.00000   10.63812             8.34198
908.74324   855.92568   148.00000  15.93247             11.85668
907.23301   919.66019   103.00000  13.97382             9.43020
910.94000   1121.88000  150.00000  16.84992             11.37272
912.42913   607.34646   254.00000  18.66846             17.34344
910.75163   1024.71242  153.00000  15.63593             12.69881
910.55462   1207.12605  119.00000  12.90887             11.76308
913.75410   1398.03279  244.00000  18.36679             17.00639
911.95833   733.53125   192.00000  20.38028             12.12851
912.21600   1076.30400  125.00000  12.93869             12.46423
914.44311   779.50299   167.00000  19.28918             11.47953
916.87310   765.25381   197.00000  18.01832             14.04204
919.91336   682.12274   277.00000  26.57802             14.13366
916.12308   1087.54615  130.00000  14.83542             11.34644
917.21765   1452.37059  170.00000  17.34881             12.51700
918.77209   976.27442   215.00000  20.28236             14.08229
917.52105   1003.04211  190.00000  23.29972             10.58465
921.26636   1154.32243  214.00000  22.39247             12.59593
919.58537   1253.60163  123.00000  14.08875             11.27582
923.05909   1474.19545  220.00000  21.93265             12.85022
920.72222   1380.92857  126.00000  13.16500             12.40973
926.64530   1123.42308  234.00000  22.75972             13.76444
924.77778   859.11852   135.00000  16.21426             10.63996
925.92744   547.37855   317.00000  23.68660             17.14809
926.91810   843.45690   232.00000  19.99510             15.31250
928.60849   1110.50472  212.00000  24.47417             11.46923
931.01923   1041.18269  208.00000  25.36307             11.38241
926.44604   1194.73381  139.00000  14.15717             13.02703
927.77500   915.61875   160.00000  15.52685             13.14844
930.59244   959.28151   238.00000  20.49350             14.92243
928.85065   997.57143   154.00000  15.63828             12.62209
929.78146   733.21854   151.00000  15.58407             12.44454
930.16216   1239.54730  148.00000  15.59167             12.18817
935.04478   718.79602   201.00000  22.90774             11.91305
928.45161   1292.70968  31.00000   6.85750              5.70016
933.85227   1396.62500  176.00000  16.87211             13.31458
937.51542   662.80617   227.00000  24.36731             11.91486
939.18095   1079.56190  210.00000  25.65179             10.52664
937.96269   1188.38806  134.00000  18.88603             9.58494
935.82203   1267.33898  236.00000  19.02643             16.57818
933.22222   1332.90278  72.00000   10.71622             8.69222
941.25532   811.42553   329.00000  23.73887             17.98522
936.40945   1069.22835  127.00000  14.45136             11.26575
936.26277   1210.32847  137.00000  15.06066             11.69232
941.25664   753.94690   226.00000  23.78903             12.79073
942.32776   1432.00000  299.00000  26.65607             14.72068
943.40782   1028.78212  179.00000  21.83495             10.72113
943.62703   940.81081   185.00000  20.02363             11.95925
942.79167   1001.93229  192.00000  22.74598             12.17659
940.28682   1148.29457  129.00000  16.03365             10.31897
945.68199   917.09579   261.00000  22.46947             15.18500
946.14493   1200.73913  138.00000  16.91937             10.99498
939.87805   1299.09756  41.00000   7.83940              6.62644
943.83146   1244.46067  89.00000   13.80529             8.31352
945.58416   1383.44554  101.00000  13.79385             9.33770
946.39726   1345.84932  73.00000   10.35771             8.94853
950.41981   621.57075   212.00000  18.34439             14.85205
948.26415   1191.37736  53.00000   9.94674              7.10087
954.62389   662.85841   226.00000  19.04894             15.15716
952.62069   791.90345   145.00000  15.81638             11.68662
954.00465   851.55814   215.00000  20.10471             13.70137
953.23358   897.23358   137.00000  16.50809             10.60849
953.60326   1408.97826  184.00000  16.66038             14.17259
951.79592   1288.97959  49.00000   8.90580              6.99952
956.91275   988.75168   149.00000  17.64407             10.85141
960.20979   1155.97902  143.00000  17.76323             10.30213
961.75546   725.65502   229.00000  25.36974             11.77426
961.68449   874.47594   187.00000  19.44100             12.37458
959.21818   1129.25455  110.00000  12.73215             11.33391
960.26250   1137.76250  80.00000   12.68343             8.66751
961.11719   1396.64844  128.00000  16.37675             10.34915
963.32515   954.56442   163.00000  16.33483             13.00701
963.15084   1075.77095  179.00000  15.95662             14.31347
964.46154   1165.53846  143.00000  16.14410             11.57610
963.13551   909.77103   214.00000  19.93657             13.92834
964.88710   1024.03763  186.00000  16.73792             14.19534
970.27835   603.24742   291.00000  25.20302             14.98147
968.09722   827.60185   216.00000  27.39042             10.52175
967.61212   1232.70909  165.00000  21.35146             10.84055
968.50000   1250.37069  116.00000  14.27426             10.47058
969.07968   1462.44223  251.00000  19.81483             16.37212
969.71304   769.89565   230.00000  19.09777             15.47764
970.04396   1117.16484  182.00000  18.67521             12.62656
967.33898   1279.05085  118.00000  16.94787             8.92768
969.88623   1009.87425  167.00000  14.96151             14.27462
970.48462   1320.70000  130.00000  16.63291             9.98435
967.56452   709.58065   62.00000   10.99253             7.15000
972.44828   1126.36782  87.00000   11.86478             9.55366
973.06696   962.20982   224.00000  31.03183             9.39411
972.86567   1227.59701  67.00000   11.16039             7.66990
975.79104   837.07463   134.00000  14.07290             12.18153
975.43931   1210.51445  173.00000  16.36098             14.21070
976.27273   792.57576   165.00000  20.09283             10.51244
981.47399   1032.74566  173.00000  20.87318             10.77376
981.96703   1431.74176  182.00000  19.83718             11.69746
984.19343   677.94161   274.00000  22.84460             15.64701
978.12195   872.85366   82.00000   11.12171             9.42338
981.33838   903.61111   198.00000  17.52592             14.45664
977.04878   1387.02439  41.00000   7.83649              6.65567
983.71856   1359.19162  167.00000  20.57987             10.66433
982.86066   1042.64754  122.00000  14.09471             11.17190
982.45385   1106.19231  130.00000  18.34677             9.21209
981.60440   1296.47253  91.00000   12.89199             9.06299
986.86339   865.06011   183.00000  18.39026             13.19627
982.63063   1284.11712  111.00000  16.35417             8.78850
993.77778   1265.52137  234.00000  29.75914             11.33437
984.56962   1399.02532  79.00000   13.26495             7.59107
987.13125   958.03750   160.00000  15.75831             12.97989
989.34951   1010.92233  206.00000  18.38350             14.29359
984.53571   793.23214   56.00000   10.56175             7.24044
988.17021   799.78723   94.00000   12.96764             9.54348
987.27368   815.57895   95.00000   12.57057             9.65775
987.45038   1203.26718  131.00000  18.25949             9.28787
988.22481   879.47287   129.00000  13.87355             12.04026
988.93478   1274.82609  92.00000   13.34791             8.77117
989.84000   919.79000   100.00000  15.04992             8.54544
997.58099   1228.17254  284.00000  22.18808             17.09817
990.34426   1299.67213  61.00000   9.98659              7.78371
994.54762   753.26667   210.00000  24.39785             11.54822
991.92157   1291.19608  51.00000   9.13173              7.12740
993.84127   1326.85714  63.00000   9.24415              8.69447
995.90385   1342.04487  156.00000  17.33082             11.49252
998.14545   1198.26061  165.00000  16.99072             13.12039
992.96296   1318.22222  27.00000   6.30783              5.46971
999.35220   883.32704   159.00000  17.02690             13.20277
998.68750   804.87500   80.00000   10.96789             9.40707
999.81343   904.76866   134.00000  15.69534             10.91096
1000.25564  1215.57143  133.00000  14.92539             11.53550
1004.37186  917.89447   199.00000  23.76303             11.14919
1002.12687  1053.97761  134.00000  16.03613             10.71800
1001.06356  1373.18644  236.00000  23.51169             13.17946
1002.19565  893.54348   92.00000   13.89428             8.76019
1006.48263  1513.74517  259.00000  21.46940             15.91573
1005.04412  980.76471   136.00000  20.41980             8.74458
1003.88060  1391.44776  134.00000  14.63991             11.98126
1008.29104  568.50746   268.00000  22.84040             15.43417
1003.06475  1312.61871  139.00000  16.29775             11.26100
1005.41139  1402.22152  158.00000  19.08317             10.64669
1006.89714  671.13143   175.00000  16.95665             13.35678
1006.39333  733.44000   150.00000  19.88869             10.03662
1006.85864  997.46597   191.00000  17.37346             14.08882
1004.45545  777.84158   101.00000  15.74018             8.37320
1007.04918  1039.41803  122.00000  16.51196             9.70697
1012.12632  716.48421   95.00000   12.86972             9.47270
1012.64948  1063.31959  97.00000   13.14055             9.56229
1014.66292  777.74157   178.00000  18.63872             12.45230
1014.92784  1119.15979  194.00000  20.64488             12.77635
1014.66949  1426.41949  236.00000  27.49181             11.44373
1019.81564  1007.34637  179.00000  20.77660             11.24303
1015.35897  752.96154   78.00000   10.17900             9.94059
1020.09237  728.92771   249.00000  23.14987             14.79254
1022.98492  685.85930   199.00000  23.15278             11.09801
1020.96154  986.37179   156.00000  18.80504             11.70718
1022.22222  1248.31801  261.00000  23.77579             15.05739
1019.34454  1080.79832  119.00000  15.66146             9.75501
1021.14286  1175.37363  182.00000  17.72250             13.10025
1022.42771  1450.83735  166.00000  17.08885             12.54752
1022.05714  952.91429   105.00000  16.86413             8.07128
1025.23502  1294.68203  217.00000  21.60567             12.97436
1020.43820  1347.29213  89.00000   12.09325             9.50758
1028.78148  615.67407   270.00000  25.18171             13.83217
1024.87845  707.89503   181.00000  18.95803             12.54575
1022.36283  1066.74336  113.00000  15.87820             9.37784
1025.19136  757.74691   162.00000  17.07820             12.23064
1024.21296  933.22222   108.00000  14.04104             9.91818
1025.31818  1272.12879  132.00000  14.82601             11.49445
1022.60440  1042.10989  91.00000   14.13859             8.21394
1029.43774  1152.86038  265.00000  19.56421             17.87440
1030.02193  1231.75000  228.00000  27.38584             10.85265
1026.09756  919.70732   123.00000  12.77921             12.51918
1030.23684  1201.47368  190.00000  23.36201             10.78216
1031.45349  902.36628   172.00000  19.26191             11.62224
1030.01493  1441.00746  134.00000  17.38629             9.84260
1032.63636  823.60140   143.00000  15.33327             11.96771
1032.63158  789.72807   114.00000  12.34600             11.79401
1037.39899  969.65657   198.00000  25.64201             9.93476
1039.16972  948.97248   218.00000  22.26727             13.46651
1035.87121  1285.99242  132.00000  14.73395             11.46704
1035.85096  738.44712   208.00000  20.64056             13.00702
1038.37302  775.11905   126.00000  16.51766             9.75980
1036.79091  800.48182   110.00000  14.21980             9.92709
1036.51852  854.22840   162.00000  22.00812             9.53681
1038.08163  871.63946   147.00000  17.77190             10.79748
1040.57297  1034.13514  185.00000  19.12733             12.40991
1040.41414  635.35354   99.00000   16.36884             7.76185
1038.78641  1112.64078  103.00000  14.25376             9.30272
1040.74444  1430.38889  180.00000  17.19572             13.34159
1040.25373  360.13433   134.00000  14.29572             11.96700
1045.16509  1202.10377  212.00000  26.89919             10.55332
1041.08497  1097.54902  153.00000  19.27298             10.13275
1045.01587  641.89683   126.00000  16.47956             10.02199
1044.49533  1165.03271  214.00000  19.00853             14.46247
1044.18248  398.21168   137.00000  13.28340             13.13137
1044.81013  891.34810   158.00000  14.67705             13.78654
1050.65188  1190.45734  293.00000  29.01066             15.76806
1044.37500  1244.32812  192.00000  20.16517             12.29403
1046.76163  810.17442   172.00000  17.66640             12.54165
1052.01931  1126.25097  259.00000  26.31646             13.85381
1047.48780  761.14024   164.00000  18.59426             11.68216
1046.03425  853.33562   146.00000  16.19443             11.58301
1052.98545  548.19273   275.00000  22.78755             15.44819
1047.00000  1325.50000  64.00000   9.80085              8.27305
1053.82667  1004.10000  150.00000  16.59340             12.19255
1053.47959  358.71939   196.00000  16.98152             14.72448
1051.24752  1449.35644  101.00000  11.97237             10.76232
1058.60396  1064.11881  202.00000  22.98563             11.46387
1058.86458  386.76042   288.00000  20.44707             18.05347
1058.85603  784.76654   257.00000  23.88731             14.01799
1054.84080  1045.91542  201.00000  22.82792             11.40472
1056.66667  717.97222   180.00000  15.89531             14.65583
1059.77872  1077.63404  235.00000  24.02633             12.78415
1057.81410  1306.50000  156.00000  15.01277             13.27856
1056.96744  1333.71628  215.00000  24.39776             11.42428
1061.55184  430.65552   299.00000  24.01678             16.13390
1056.55000  901.43000   100.00000  12.59774             10.22441
1062.42857  1276.63265  294.00000  31.13069             12.21742
1058.62651  1401.51807  83.00000   12.41767             8.58398
1058.64103  824.98291   117.00000  19.53776             7.82311
1060.94175  844.49515   103.00000  15.19964             8.67223
1059.39286  1166.03571  196.00000  22.74239             11.11572
1061.91667  870.23333   180.00000  17.49096             13.26045
1061.81818  948.42614   176.00000  16.75560             13.86615
1062.86885  970.58470   183.00000  16.69495             14.05505
1072.31203  1100.09023  266.00000  32.92307             12.57907
1069.01639  1005.68306  183.00000  21.76048             10.98712
1068.83448  1157.38621  145.00000  18.33999             10.15293
1066.59441  891.97203   143.00000  16.68757             11.00029
1068.49315  903.21233   146.00000  17.44001             11.21401
1068.55556  1035.22876  153.00000  18.91328             10.51932
1075.16667  777.98889   180.00000  28.25343             8.21163
1074.52632  589.83254   209.00000  20.45175             13.34859
1072.12500  671.88095   168.00000  18.66596             11.54537
1074.48501  809.70027   367.00000  26.28607             18.48055
1072.79054  1414.86486  148.00000  15.92448             11.88279
1081.34956  1060.46460  226.00000  27.79898             10.68963
1075.66667  1068.72549  153.00000  17.17714             11.77130
1077.50467  466.64019   214.00000  17.41566             15.83579
1079.20495  748.11661   283.00000  20.40685             18.97961
1082.79221  952.41991   231.00000  28.27768             10.86931
1078.45930  921.15116   172.00000  19.01813             11.59240
1080.66176  968.30882   136.00000  18.35415             9.66520
1079.53333  1301.34815  135.00000  15.82106             11.13569
1079.11675  539.79188   197.00000  21.04995             11.94610
1078.97942  728.66667   243.00000  26.62070             11.92045
1078.10870  1243.42029  138.00000  18.85386             9.35658
1082.59184  887.02041   147.00000  16.02744             11.87863
1083.33735  1209.14458  249.00000  20.96936             16.45812
1084.00897  1346.39462  223.00000  17.62390             16.26737
1084.07778  1459.12778  180.00000  17.96243             12.78601
1084.59459  1489.42342  111.00000  13.66737             10.36940
1084.80769  982.02564   156.00000  18.82426             10.69479
1087.13924  580.63924   158.00000  15.31690             13.39044
1088.46218  1017.39076  238.00000  18.43787             16.59601
1088.72021  1185.13990  193.00000  20.62045             12.15820
1089.71304  1473.32174  230.00000  21.24731             14.37797
1088.67722  823.21519   158.00000  16.96880             12.12514
1090.28571  1165.44828  203.00000  19.45976             14.05718
1091.48095  518.49048   210.00000  17.90725             15.12391
1092.08594  534.03906   256.00000  20.20872             16.43441
1088.99174  625.77686   121.00000  13.84496             11.15105
1096.07563  648.00840   238.00000  28.35043             12.30122
1088.39785  1256.96774  186.00000  20.32823             11.71153
1090.18182  1297.95455  88.00000   11.50499             10.04448
1093.64186  479.75349   215.00000  20.00347             13.81470
1092.86598  721.07216   194.00000  17.46288             14.39346
1095.67021  835.93085   188.00000  21.13089             11.51913
1093.84722  863.44097   288.00000  26.14530             14.28654
1093.42541  1094.62983  181.00000  17.01123             13.69214
1096.20000  611.13333   105.00000  13.05566             10.30102
1098.63830  799.99291   141.00000  21.59644             8.35619
1098.10884  892.03401   147.00000  18.19149             10.54006
1096.82759  1125.73793  145.00000  15.63430             11.87323
1099.20000  747.36875   160.00000  17.40537             11.97236
1102.64141  584.31313   198.00000  19.24129             13.24384
1104.90717  598.51477   237.00000  23.55502             13.12736
1099.57868  1213.25888  197.00000  23.76579             10.65403
1104.75806  669.38710   62.00000   10.89775             7.46402
1109.28497  811.17617   193.00000  22.27449             11.42488
1108.45000  1234.26000  200.00000  16.79070             15.29938
1107.43511  863.02290   131.00000  14.65154             11.55690
1107.82796  1290.71505  186.00000  19.89208             12.00158
1112.18246  1079.90175  285.00000  22.99972             16.44841
1112.24138  571.09360   203.00000  18.07582             14.36729
1111.11765  957.73262   187.00000  18.37833             13.05009
1109.44595  1396.20946  148.00000  17.10237             11.13810
1109.25532  629.96454   141.00000  17.05651             10.77880
1113.60773  1223.24862  181.00000  21.27701             11.24185
1118.64583  1214.95312  192.00000  26.67802             9.38035
1120.34857  1203.87429  175.00000  28.65433             8.44754
1115.39310  681.68276   145.00000  19.42211             9.79492
1113.51389  743.83333   144.00000  14.41266             13.29348
1113.40909  1484.37500  176.00000  19.55973             11.51829
1114.88636  922.22159   176.00000  17.14943             13.08348
1117.12438  940.62687   201.00000  18.17429             14.87983
1119.35316  1056.66543  269.00000  20.28564             17.08735
1120.37073  827.24390   205.00000  21.46153             12.27404
1118.04242  1255.50909  165.00000  16.16121             13.20596
1118.09581  1000.69461  167.00000  17.63397             12.10840
1120.34322  1525.14831  236.00000  19.38730             15.75439
1118.85106  1269.19149  141.00000  15.76022             11.66343
1121.01961  888.31373   153.00000  15.43973             12.74105
1124.61745  606.19463   149.00000  17.31998             11.45036
1124.42515  970.73653   167.00000  16.34695             13.34959
1124.85714  739.84874   119.00000  17.02603             9.17303
1123.09790  694.99301   143.00000  16.73549             10.89267
1125.61404  708.85965   171.00000  17.28962             12.67251
1124.85772  1031.58130  246.00000  27.63100             11.59060
1129.91707  1123.87317  205.00000  24.50303             10.73199
1129.65957  836.08085   235.00000  20.66256             14.85597
1129.96296  723.05291   189.00000  17.06385             14.16667
1129.07177  1093.15789  209.00000  17.30838             15.37150
1134.01852  906.62500   216.00000  21.00549             13.44932
1131.35294  1394.77059  170.00000  15.53700             14.35686
1137.43825  639.39442   251.00000  21.63493             15.37606
1133.72535  1198.97183  142.00000  18.77808             9.82499
1138.92478  1283.25221  226.00000  17.73938             16.55115
1140.24806  1350.41085  258.00000  21.86400             15.31128
1138.78173  541.49239   197.00000  16.97824             14.80196
1139.78652  684.20787   178.00000  18.57887             12.24885
1143.31786  985.58571   280.00000  21.88190             18.40084
1139.45517  1175.15172  145.00000  18.05924             11.18133
1138.92308  736.40171   117.00000  14.61837             10.43183
1141.50769  868.35385   130.00000  16.63367             9.99815
1140.30000  583.97857   140.00000  14.45108             12.37990
1142.31293  749.71429   147.00000  16.53386             11.36187
1145.29940  1164.88024  167.00000  18.94485             11.69079
1148.53191  667.00709   141.00000  18.71092             9.61593
1145.88235  1058.67059  170.00000  18.98542             11.46846
1147.47656  1182.42969  128.00000  17.98225             9.83874
1148.36723  1515.41808  177.00000  19.19885             12.11098
1146.73143  606.24571   175.00000  21.28688             10.63337
1147.55556  906.79487   117.00000  13.28858             11.25723
1151.29082  807.30102   196.00000  18.08483             13.92447
1150.32340  851.05957   235.00000  22.34039             13.55878
1151.86179  1082.56911  123.00000  15.86858             9.97564
1151.37566  1013.49206  189.00000  19.62698             12.34829
1163.62712  773.04407   590.00000  35.82811             22.09385
1151.31461  974.59551   89.00000   12.30399             9.27514
1154.56061  591.98485   198.00000  18.04999             14.11046
1155.59146  565.15854   164.00000  14.83011             14.10484
1160.03378  714.18919   148.00000  21.77517             8.88102
1155.52555  897.91241   137.00000  15.14899             11.70981
1156.51908  734.29008   262.00000  27.12918             12.33497
1158.11364  939.47727   132.00000  14.01173             12.25248
1154.98824  1380.52941  85.00000   11.93219             9.05706
1159.03472  955.36111   144.00000  16.16271             11.37712
1160.94245  507.96403   139.00000  15.19606             11.71479
1160.20106  520.44444   189.00000  16.52792             14.63540
1160.79787  1295.13298  188.00000  17.86638             13.49328
1162.25728  1033.12136  206.00000  19.71685             13.39503
1160.36290  1089.79839  124.00000  15.87383             10.05659
1160.91244  1050.24885  217.00000  22.09092             12.60028
1162.14000  978.09333   150.00000  15.30997             12.55303
1159.14706  1209.61765  34.00000   7.20343              5.98151
1165.49444  624.49444   180.00000  20.01382             11.52300
1168.01786  1201.14286  224.00000  22.96384             12.69597
1163.20619  675.43299   97.00000   12.31901             10.06091
1162.82090  700.02239   134.00000  15.06500             11.33423
1168.11675  833.32487   197.00000  21.56940             11.89214
1167.12727  1558.42727  220.00000  25.30062             11.24473
1170.85437  806.05825   206.00000  19.06686             13.89640
1170.57143  681.57653   196.00000  27.74741             9.42574
1176.09251  1115.82379  227.00000  28.80699             10.69437
1170.30476  602.02857   105.00000  13.81541             9.74030
1170.25735  1486.66912  136.00000  14.84413             11.76807
1175.53922  940.63725   204.00000  18.84613             13.84888
1180.19380  789.59302   258.00000  22.07320             15.07409
1178.74419  988.00000   172.00000  20.99423             10.62949
1178.97619  884.14881   168.00000  15.40794             13.95379
1181.25604  1555.11594  207.00000  20.78560             13.00795
1185.63636  1786.35191  341.00000  27.02343             17.46503
1176.77966  1801.03390  59.00000   10.31829             7.31788
1184.90452  894.50754   199.00000  20.91358             12.63334
1183.59574  596.48227   141.00000  17.50484             10.33258
1182.76190  998.58730   189.00000  17.17497             14.12161
1185.13587  709.69565   184.00000  22.37076             10.53927
1186.68041  674.88660   194.00000  19.65653             13.00545
1185.90306  764.53571   196.00000  16.20153             15.55087
1184.21094  864.42969   128.00000  14.69562             11.25268
1187.10274  1104.68493  146.00000  16.42798             11.53588
1189.20141  1298.54417  283.00000  25.30433             14.46380
1186.69595  1348.06081  148.00000  15.92490             12.53728
1188.93846  503.55385   195.00000  18.33974             13.85116
1188.92308  716.72308   65.00000   12.07053             7.08165
1192.96319  636.43558   163.00000  18.68782             11.24419
1191.92617  753.28188   149.00000  17.62509             11.11008
1191.45399  1006.82209  163.00000  19.89161             10.67671
1200.33333  646.08046   261.00000  29.53232             11.53966
1194.42077  736.07650   183.00000  21.40193             11.10573
1195.22439  816.14146   205.00000  18.33491             14.45575
1194.19048  859.13690   168.00000  16.46739             13.11640
1197.93293  883.76220   164.00000  22.99939             9.78812
1194.38849  689.44604   139.00000  14.01743             12.66900
1200.16568  830.04734   169.00000  26.87417             8.13217
1204.16710  1089.71979  389.00000  33.23953             15.50458
1196.79412  1338.29412  238.00000  17.98776             17.00099
1198.90566  1800.89308  159.00000  21.92665             9.94596
1195.23077  953.08392   143.00000  16.68323             10.93554
1198.74691  1570.22840  162.00000  16.86477             12.25013
1197.15556  719.31111   90.00000   11.24942             10.32167
1198.31138  1024.46707  167.00000  16.45720             12.97253
1203.11616  1112.73232  198.00000  22.05295             11.58465
1199.19394  1142.46667  165.00000  17.37119             12.13651
1201.28962  1172.82514  183.00000  20.18786             11.61385
1202.48168  933.33508   191.00000  16.45417             14.92258
1206.47953  1038.94152  171.00000  17.32060             12.82472
1211.29221  821.44805   154.00000  20.42028             11.18639
1211.90614  790.40794   277.00000  22.03523             16.21579
1214.04583  592.64167   240.00000  20.67695             14.99029
1216.23077  687.16742   221.00000  23.96134             12.09808
1211.96923  995.94615   130.00000  16.07061             10.44311
1214.78488  957.68605   172.00000  17.35549             12.78097
1212.93939  1239.42424  33.00000   7.22277              5.75635
1217.84000  1070.74667  150.00000  15.09184             12.78853
1218.51235  1122.59259  162.00000  17.71254             11.69585
1219.04878  716.10732   205.00000  19.36843             13.59690
1220.92373  740.61441   236.00000  28.79761             10.84976
1220.91216  890.03378   148.00000  18.13311             10.46590
1218.93229  1164.23958  192.00000  17.24070             14.25423
1220.76404  1052.80899  178.00000  19.24621             12.06243
1220.35714  637.54545   154.00000  14.96901             13.15187
1220.23729  1023.69492  59.00000   9.91537              7.55816
1224.34375  909.01562   192.00000  19.11264             12.85414
1223.97143  993.12857   140.00000  15.58920             11.63797
1226.16667  803.59583   240.00000  25.98539             12.11754
1226.83607  1577.10383  183.00000  17.23448             13.69411
1225.72566  1079.51327  113.00000  12.54656             11.61613
1230.78146  1017.55629  151.00000  14.99388             13.01799
1233.99634  1033.66300  273.00000  22.96611             15.61161
1233.08861  647.23418   158.00000  17.53376             11.72338
1232.62644  710.09195   174.00000  16.38551             13.79480
1230.61538  1266.98077  104.00000  12.89602             10.27004
1237.39665  589.01117   179.00000  20.80525             11.69525
1239.86603  837.87560   209.00000  24.47418             11.07008
1238.28736  908.86782   174.00000  19.62751             11.94668
1238.83333  1272.85000  120.00000  14.08561             11.26608
1239.98693  617.88235   153.00000  16.59841             11.90515
1244.15108  683.07914   278.00000  27.19435             13.84504
1239.61417  1570.80315  127.00000  15.52503             10.53543
1247.57073  1325.65854  205.00000  28.29583             9.97145
1241.32787  1581.71311  122.00000  13.70081             11.42065
1243.58394  753.04380   137.00000  18.58873             9.48500
1244.94545  1149.34545  220.00000  22.42517             12.71328
1245.05763  1170.32542  295.00000  23.40747             16.21332
1243.25311  1233.31535  241.00000  21.74254             14.16202
1249.06173  661.85185   243.00000  29.69108             10.49254
1244.80292  792.52555   137.00000  14.98005             11.82054
1249.01220  572.67073   328.00000  26.61235             15.86212
1247.77528  1022.51124  178.00000  22.03903             10.67546
1243.65385  1214.26923  130.00000  15.93112             10.65759
1250.34630  805.65370   257.00000  22.14428             14.98701
1248.33951  960.04938   162.00000  16.77875             12.96330
1253.21200  849.70400   250.00000  22.88571             14.48017
1256.36574  711.07407   216.00000  23.89441             12.80391
1255.12270  746.34969   163.00000  19.32284             10.89328
1257.56723  989.91176   238.00000  25.51650             12.20713
1252.33028  1207.60550  109.00000  12.34688             11.47866
1252.97436  764.10256   78.00000   11.04514             9.04011
1255.22798  1098.03627  193.00000  19.98127             12.30611
1257.77348  953.73481   181.00000  17.31851             14.00242
1259.43293  674.68293   164.00000  16.91381             12.73170
1259.24880  1061.22967  209.00000  22.74428             11.98652
1257.82069  696.48966   145.00000  17.95779             10.31946
1257.33333  1270.53175  126.00000  13.67819             11.79732
1262.58719  477.64769   281.00000  20.18973             17.85559
1258.61818  796.17273   110.00000  11.94030             11.85063
1261.10606  920.04545   198.00000  20.74057             12.21358
1261.90909  769.43636   110.00000  13.73647             10.31079
1265.21302  904.57988   169.00000  19.97291             11.30509
1265.38286  536.77714   175.00000  17.26673             13.04322
1268.38916  835.09852   203.00000  17.49342             15.21643
1274.21452  1164.12211  303.00000  27.33533             14.21579
1268.73171  1047.78862  123.00000  16.45282             9.59458
1271.52201  1124.80503  159.00000  17.87798             11.34206
1273.15541  737.21622   148.00000  19.67859             9.62247
1274.00394  1027.88189  254.00000  23.67701             13.91518
1270.61475  702.83607   122.00000  14.73621             10.59415
1272.32540  1251.84921  126.00000  14.64664             11.06642
1273.00000  745.53933   89.00000   12.78419             8.98440
1274.42857  858.15789   133.00000  14.85709             11.48997
1275.94949  1301.28283  99.00000   12.43910             10.26067
1280.89894  915.85638   188.00000  21.59692             11.36507
1280.60571  553.75429   175.00000  20.38046             11.08179
1277.64545  939.04545   110.00000  13.39011             10.53681
1281.14375  948.20625   160.00000  18.44866             11.18194
1284.14208  1079.12022  183.00000  18.65202             12.58877
1282.60331  602.74380   121.00000  14.06593             10.98022
1286.94323  638.94323   229.00000  20.88183             14.01072
1287.46497  564.33758   157.00000  18.69119             10.78837
1285.74561  748.75439   114.00000  16.22130             9.13017
1287.23270  875.00629   159.00000  18.07433             11.28247
1287.41509  884.59434   106.00000  17.48250             7.87106
1291.76695  855.81356   236.00000  26.79133             11.47079
1288.70175  980.56140   171.00000  16.94933             12.92567
1294.49767  720.12093   215.00000  20.92312             13.33078
1296.42060  665.88841   233.00000  23.89698             12.50095
1294.41935  802.87097   155.00000  17.95055             11.23880
1297.91480  519.56054   223.00000  20.02493             14.27321
1301.03933  752.96629   178.00000  18.33697             14.08100
1298.37333  1113.60000  150.00000  17.03413             11.33645
1303.26022  986.36431   269.00000  25.30757             14.78295
1301.43243  613.25946   185.00000  18.18334             13.38009
1303.29204  1282.05752  226.00000  21.23222             13.59679
1303.80976  927.53171   205.00000  17.76371             14.91347
1305.02203  837.20264   227.00000  20.63085             14.33375
1306.95161  1312.75000  248.00000  20.48489             15.69393
1306.61951  1049.42439  205.00000  19.27184             13.73133
1304.91818  596.98182   110.00000  12.46948             11.43677
1306.47826  804.65217   115.00000  13.75715             11.06806
1312.05381  1159.77130  223.00000  23.91890             12.14222
1309.23404  708.64894   188.00000  17.58712             13.67146
1307.40602  787.24060   133.00000  14.63201             11.60091
1312.95635  1266.57540  252.00000  21.46730             15.29348
1309.67857  1098.30000  140.00000  13.99125             12.86003
1314.28980  957.42857   245.00000  22.18825             14.86988
1312.99495  723.08586   198.00000  19.51987             13.27670
1312.23243  875.98919   185.00000  16.53935             14.42539
1313.18140  517.67442   215.00000  19.50954             14.14483
1315.48125  752.97500   160.00000  17.95840             11.53604
1316.58140  591.86047   172.00000  17.04328             13.08975
1314.14286  943.75000   112.00000  15.06601             9.53056
1317.40933  1113.07772  193.00000  17.52265             14.11364
1317.51200  805.20800   125.00000  14.87179             10.89842
1320.87440  766.91787   207.00000  20.52342             12.86398
1319.57025  783.16529   121.00000  14.66487             10.57655
1320.42135  1025.50000  178.00000  16.07567             14.10999
1323.07273  929.37576   165.00000  22.02517             9.96066
1325.33333  476.43011   186.00000  20.53802             11.64115
1322.17391  539.19130   230.00000  19.79140             14.92461
1324.88384  833.99495   198.00000  21.19149             12.22010
1322.78453  912.77901   181.00000  17.66608             13.09965
1325.17391  1139.61957  184.00000  23.77795             9.99046
1323.42541  495.78453   181.00000  17.95457             13.29002
1323.42105  987.52632   190.00000  17.44501             14.19202
1326.43956  1011.06044  182.00000  19.19712             12.17870
1326.45342  704.03727   161.00000  18.72693             11.16685
1323.85526  1102.47368  76.00000   10.52294             9.27223
1326.47414  656.89655   116.00000  14.50856             10.39608
1327.66279  808.08140   86.00000   13.34449             8.23487
1333.34649  851.07018   228.00000  24.61190             11.93736
1328.10256  979.32051   78.00000   14.70993             6.97696
1331.24138  1070.04310  232.00000  18.98128             15.60694
1331.60123  795.49080   163.00000  16.02616             13.14863
1338.77841  756.64205   176.00000  20.73062             10.92728
1337.92523  821.09813   214.00000  17.98361             15.47777
1337.44167  1023.86667  120.00000  15.19250             10.10853
1340.50314  1090.94969  159.00000  18.22027             11.44772
1342.11616  575.36869   198.00000  19.06508             13.40099
1339.64078  1151.09709  103.00000  13.43028             9.85795
1349.39352  1098.90741  216.00000  22.50241             12.76530
1350.74439  702.80269   223.00000  23.22504             12.28606
1348.40984  1022.22951  61.00000   10.07363             7.71043
1349.91589  930.49533   107.00000  13.19113             10.34237
1350.82979  817.55319   47.00000   10.03801             5.95780
1352.67808  873.96575   146.00000  15.53047             12.28782
1354.52500  1011.51250  160.00000  15.82367             13.13008
1359.48421  1319.53158  190.00000  19.70678             12.35619
1362.79061  576.96029   277.00000  23.57190             15.59967
1359.97794  710.54412   136.00000  15.53150             11.21047
1359.82069  984.62069   145.00000  16.47320             11.26591
1364.81379  870.75862   145.00000  15.44149             12.10376
1371.55172  922.53879   232.00000  27.89991             10.88547
1367.70769  1002.73077  130.00000  13.59788             12.18391
1374.61739  750.71304   230.00000  23.37992             12.62081
1374.46231  651.74372   199.00000  21.67731             11.91238
1372.92593  857.97778   135.00000  17.45963             10.38584
1375.11020  1148.56327  245.00000  20.71413             15.29910
1377.60577  721.70192   208.00000  19.90044             13.52728
1379.66667  863.90278   144.00000  20.47713             9.57324
1379.32215  1308.83893  149.00000  18.51918             10.41864
1383.66225  561.20530   151.00000  17.36001             11.13544
1390.19892  787.51613   186.00000  19.00950             12.55103
1388.17178  885.23926   163.00000  15.20238             13.74403
1387.33333  984.09195   174.00000  17.05241             13.03898
1392.21212  944.29437   231.00000  22.84230             12.92409
1397.30830  569.41502   253.00000  20.24308             16.14107
1397.85507  777.42029   138.00000  14.69361             12.14678
1400.51136  545.40341   176.00000  17.42135             12.94673
1407.23383  926.26368   201.00000  19.62460             13.42724
1406.99507  651.57143   203.00000  16.46814             15.79141
1409.78453  701.70718   181.00000  17.53008             13.44752
1409.85778  987.60889   225.00000  20.90732             13.98434
1416.36455  814.90970   299.00000  28.46222             13.53429
1414.70513  847.81624   234.00000  21.46328             14.19864
1415.96629  543.27528   178.00000  18.62969             12.26745
1418.06475  752.42446   139.00000  16.83734             10.77970
1418.48485  742.50000   132.00000  15.71698             10.84338
1422.24699  715.07229   166.00000  17.90856             11.94595
1423.09140  532.63441   186.00000  18.22678             13.06586
1423.53005  641.06011   183.00000  16.50025             14.14976
1428.37569  629.49171   181.00000  22.85954             10.12734
1425.75610  1135.94309  123.00000  15.85966             9.99289
1428.70000  1147.71111  180.00000  17.69379             13.29575
1429.71560  1279.48165  218.00000  19.77323             14.57830
1429.44311  768.01796   167.00000  16.72761             12.87287
1441.29187  703.32536   209.00000  20.82983             12.82191
1435.70093  883.86916   107.00000  13.62183             10.05186
1439.44681  940.03723   188.00000  18.30810             13.24328
1441.17021  526.74468   188.00000  18.34726             13.08236
1445.47034  1159.43220  236.00000  28.73943             10.60819
1448.71223  898.05036   139.00000  15.78507             11.32635
1450.72043  945.47312   186.00000  18.95394             12.62708
1453.87129  879.50000   202.00000  19.34735             13.57740
1461.21805  798.67293   266.00000  27.99050             12.28420
1461.32474  1247.84536  194.00000  20.05723             12.45894
1459.74667  832.04889   225.00000  24.10979             12.34394
1461.86617  505.88476   269.00000  20.57684             16.91455
1459.75701  896.62617   107.00000  12.86879             10.62700
1475.90826  624.01376   218.00000  17.85636             15.66343
1478.23529  520.16013   306.00000  21.55129             18.60417
1482.03509  752.12632   285.00000  27.08181             13.79341
1481.89809  1225.48408  157.00000  17.93582             11.16391
1483.81347  653.24870   193.00000  21.20474             11.67275
1487.82584  979.12360   178.00000  22.09438             10.48953
1487.44221  831.57286   199.00000  20.51049             12.52638
1489.28346  493.30709   127.00000  15.76664             10.30960
1491.09770  606.81034   174.00000  17.02650             13.06183
1493.50265  991.80952   189.00000  19.02331             13.15954
1497.54545  1149.43316  187.00000  26.16922             9.55187
1497.21608  1159.20101  199.00000  20.31266             12.63609
1501.64035  651.44737   114.00000  14.92250             9.79679
1505.09091  502.25000   220.00000  20.14668             14.30693
1505.64356  1214.04455  202.00000  22.65119             12.36842
1508.59686  790.21990   191.00000  21.28749             12.34465
1510.98611  912.61806   288.00000  26.60020             13.87976
1512.77626  946.24201   219.00000  25.14307             11.26624
1520.04902  842.33333   204.00000  22.35183             11.66489
1527.48515  733.74752   202.00000  24.81422             11.46252
1524.91628  995.72093   215.00000  21.36373             13.05089
1524.00943  635.31604   212.00000  20.58441             13.25951
1536.86809  956.71489   235.00000  22.02771             13.68866
1544.76136  1008.38636  264.00000  19.82291             17.18159
1552.84404  627.88532   218.00000  21.44834             13.39562
1555.38710  923.28226   248.00000  25.38910             12.70429
1552.36170  737.64894   188.00000  18.42137             12.99725
1557.01478  1167.34975  203.00000  23.73812             11.20780
1558.65217  826.10326   184.00000  18.69555             12.60523
1559.74272  941.12136   206.00000  20.98093             12.83129
1577.15873  1018.20106  189.00000  20.02803             12.12753
1585.59712  1173.12950  139.00000  16.25906             10.90182
1593.49749  717.35176   199.00000  17.36733             14.68374
1598.00546  967.73224   183.00000  22.43906             10.58699
1603.10615  727.64804   179.00000  19.95861             11.56112
1607.28837  834.27907   215.00000  22.93470             12.24629
1605.71660  1034.44130  247.00000  20.09178             15.76601
1604.92913  1190.20472  127.00000  13.02661             12.44885
1636.27731  976.74790   119.00000  13.34052             11.37675
1646.41463  706.20000   205.00000  19.77300             13.33174
1695.71536  683.61798   267.00000  21.60696             15.81288
1807.28070  740.78070   114.00000  14.85615             9.85517
1825.58282  1286.96319  163.00000  18.38189             11.38773
1833.46429  1297.08333  84.00000   11.84146             9.16675
1866.00995  737.94527   201.00000  20.12724             13.04333
1998.53939  608.99394   165.00000  19.50141             10.86821