# Filename: Nuclei_416_bidi_60x_021.npz
# Voxel size (nm): (108, 108)
# Area quantity: voxels
# Num nuclei detected: 1007
Y           X           AREA       MAJOR_AXIS_LENGTH    MINOR_AXIS_LENGTH
15.02381    1301.42381  210.00000  19.26042             14.00207
14.91667    1427.89881  168.00000  16.47902             13.06669
23.54098    1389.68852  244.00000  23.55584             13.28387
28.51698    1250.93208  265.00000  23.06483             14.71834
33.71429    1017.44082  245.00000  19.34132             16.25950
35.17500    980.32083   240.00000  20.67490             14.97815
34.48168    923.52356   191.00000  16.98975             14.35395
40.98830    1033.70175  171.00000  16.52607             13.29430
52.02778    867.17778   180.00000  16.23024             14.20388
60.05556    352.82778   180.00000  16.19979             14.21965
62.90099    1428.14851  101.00000  12.40419             10.44374
66.16746    1278.13876  209.00000  17.22678             15.47874
68.29365    1223.51587  126.00000  14.41564             11.26362
74.61600    1256.78800  250.00000  18.52107             17.29380
76.00820    1384.80328  244.00000  22.56218             13.85522
76.37561    1118.26341  205.00000  20.20016             12.94719
76.11050    1140.20442  181.00000  17.99542             13.16229
92.05238    1272.82381  210.00000  18.08109             14.83369
95.93727    527.76753   271.00000  22.10094             15.80535
106.60938   1097.45937  320.00000  22.19754             18.44319
107.27336   394.84083   289.00000  21.97276             16.76620
107.91282   1472.42564  195.00000  18.03278             13.80908
109.36082   1229.54124  194.00000  19.36821             12.80621
116.97107   1081.73967  242.00000  20.97133             14.83233
118.41209   1211.71978  182.00000  16.00289             14.51866
129.18357   882.92754   207.00000  17.45083             15.27098
135.63851   520.82095   296.00000  28.01268             13.58196
139.87705   1186.90574  244.00000  23.68791             13.88975
140.97484   711.64151   159.00000  16.94445             12.12624
151.16575   949.53039   181.00000  16.16653             14.38695
164.89804   1374.10196  255.00000  23.39046             13.99401
164.97653   343.17840   213.00000  19.82525             13.76326
163.88108   495.43243   185.00000  20.48329             11.70287
166.89575   518.20849   259.00000  21.06234             15.69948
165.77821   227.43969   257.00000  20.77144             16.02229
172.50384   1431.27110  391.00000  24.59729             20.74191
169.14010   1006.19324  207.00000  17.71826             14.98122
169.62100   453.23744   219.00000  21.38496             13.25735
171.58427   1082.58989  178.00000  17.86506             13.22455
175.55882   711.92857   238.00000  23.34156             13.07802
171.82759   1830.82759  87.00000   11.58168             9.60332
173.70588   1177.00000  102.00000  13.40696             9.79229
175.91071   1208.27381  168.00000  15.48533             13.83995
178.87831   496.03704   189.00000  18.17341             13.35108
179.18939   1271.46970  132.00000  14.64961             11.49758
196.47909   667.14449   263.00000  26.20284             12.89287
200.38365   501.37736   159.00000  14.84852             13.77611
198.00000   338.95652   46.00000   8.02895              7.42684
206.21622   744.44865   185.00000  18.37025             12.91021
213.91532   1243.88306  248.00000  20.08163             15.75645
218.51316   508.46711   152.00000  16.81080             11.62159
220.14706   674.31765   170.00000  16.87339             12.98366
222.47926   1449.32258  217.00000  20.92588             13.25443
222.96020   604.23881   201.00000  17.43876             14.73570
221.60769   1433.85385  130.00000  15.37294             10.96600
227.98010   260.55721   201.00000  19.01409             13.63555
229.88785   689.19626   214.00000  19.21395             14.29029
231.04598   1115.39655  174.00000  17.54955             12.71405
232.23353   297.40120   167.00000  18.69166             12.07313
233.85000   477.75000   180.00000  19.26944             12.21819
239.02119   412.44492   236.00000  18.50905             16.75759
238.53659   511.75610   205.00000  19.53320             13.49175
242.68396   747.46698   212.00000  21.30831             12.89291
245.85795   499.73864   176.00000  19.73663             12.43363
248.08268   1443.59449  254.00000  20.38668             15.95383
252.18140   106.71163   215.00000  21.07184             13.38516
256.25652   1151.06957  230.00000  22.59834             13.05416
256.47716   434.62437   197.00000  19.94828             12.60986
257.17216   636.51282   273.00000  21.29014             16.51408
256.93380   660.82578   287.00000  22.56079             16.24728
260.86765   731.50490   204.00000  19.87212             13.18179
268.78399   1314.79702  537.00000  34.17207             21.76008
263.46774   1252.33871  186.00000  16.56104             14.37322
268.43071   479.89888   267.00000  19.55538             17.43770
272.44554   642.69307   101.00000  14.42976             8.95365
275.66667   1411.35833  120.00000  13.89042             11.03437
278.12593   406.47407   135.00000  14.16170             12.29921
282.10672   189.07905   253.00000  20.52338             16.05951
282.15315   1169.51802  222.00000  20.68058             13.79926
288.65079   1451.88492  252.00000  22.56932             14.33452
291.63514   492.30631   222.00000  19.54356             14.55416
295.12556   1374.37220  223.00000  21.25260             13.44485
292.49738   1635.12565  191.00000  16.88621             14.46231
292.90728   1399.64901  151.00000  14.96971             12.92353
292.59649   1420.91228  171.00000  15.39902             14.23123
295.29845   284.94186   258.00000  23.98897             13.72303
301.48241   539.03015   199.00000  18.19439             14.09872
303.43646   1471.82873  181.00000  17.42148             13.35210
304.70139   567.95139   144.00000  15.97214             11.48349
308.04046   1528.36994  173.00000  18.88027             11.72622
309.18571   733.05714   210.00000  19.52667             13.81408
318.09052   295.09914   232.00000  20.81834             14.25258
317.73077   1480.20330  182.00000  18.51454             12.54468
320.44747   607.85214   257.00000  23.08902             14.38321
320.74597   1397.10887  248.00000  20.00110             16.04505
321.13580   239.08951   324.00000  26.65982             15.76028
324.08615   586.82462   325.00000  21.65715             19.22226
326.58369   488.89270   233.00000  22.74246             13.13627
325.50000   312.18023   172.00000  19.47686             11.32366
327.29487   1551.69231  234.00000  18.40813             16.21371
328.85526   1252.72368  152.00000  14.83901             13.14432
333.90385   1432.53846  208.00000  18.93157             14.04529
335.01058   161.58201   189.00000  18.16317             13.46916
335.54980   1163.77689  251.00000  20.42502             15.76541
337.56223   516.96996   233.00000  23.19049             12.92950
341.30374   430.34579   214.00000  20.11870             13.72622
344.05785   1272.10744  121.00000  15.20240             10.21039
347.29798   1219.78788  198.00000  20.24156             12.57291
356.16000   297.37600   125.00000  14.16501             11.38458
359.50988   143.72727   253.00000  19.86533             16.25742
359.66981   564.02358   212.00000  18.11441             14.97676
362.20312   1450.74479  192.00000  20.06753             12.33256
365.56777   585.06960   273.00000  22.50266             15.79121
365.73585   1467.52830  159.00000  16.08928             12.66524
373.25078   1200.04702  319.00000  26.01663             15.76510
378.88298   1167.97163  282.00000  27.23452             13.65036
373.97101   550.00725   138.00000  16.41622             10.94125
380.00362   1502.16667  276.00000  23.21275             15.23246
381.62698   1416.59524  252.00000  21.55502             15.04681
379.58993   528.71942   139.00000  13.80944             12.89681
393.12805   718.10671   328.00000  28.43002             14.89546
391.96791   1155.31016  187.00000  19.47362             12.27027
399.37025   1123.77848  316.00000  26.53819             15.44404
401.32240   256.51913   183.00000  17.13689             13.84624
402.93421   1413.41447  152.00000  15.27858             12.83333
408.02410   93.92369    249.00000  20.45890             15.63738
408.56098   1550.86585  246.00000  18.40925             17.08242
419.07162   1158.50398  377.00000  31.64277             16.22259
414.27528   1434.85955  178.00000  19.32065             11.75088
412.17526   1573.93814  97.00000   14.93293             8.43907
418.70386   1618.67811  233.00000  18.97699             15.68157
420.26506   1461.57229  166.00000  17.44296             12.43510
419.37500   1732.23684  152.00000  14.63129             13.44536
421.73964   1363.86982  169.00000  17.82526             12.26744
431.24342   1455.09211  152.00000  20.52798             10.16404
437.58824   1445.93277  119.00000  14.23491             10.68545
441.38150   1367.06358  173.00000  15.87203             14.01311
447.17603   697.07865   267.00000  19.22938             17.78364
445.75333   1598.30000  150.00000  16.71749             11.69981
453.87843   1117.00000  255.00000  20.82181             15.76606
455.76471   1099.41176  221.00000  19.97598             14.34307
464.01351   737.83784   148.00000  16.92495             11.30598
467.10526   339.29605   152.00000  16.04086             13.57069
469.53488   725.31163   215.00000  20.18927             13.88965
473.00331   1212.60596  302.00000  21.87305             18.13377
476.15126   1069.90756  238.00000  21.54325             14.29782
477.05854   1495.46341  205.00000  21.36434             12.35634
479.46721   493.92077   366.00000  29.82031             17.81042
479.08995   1103.42857  189.00000  20.44263             11.80189
483.15625   617.23438   128.00000  15.49584             10.69390
488.95817   1112.39544  263.00000  27.45044             12.29626
487.09589   1466.00913  219.00000  22.26055             12.58649
486.51196   1399.48325  209.00000  18.10861             15.45219
485.03043   1514.38261  230.00000  19.66223             15.11393
486.97619   1535.60714  168.00000  15.46177             13.92422
493.62192   1307.76712  365.00000  29.06739             16.35824
488.01754   1435.18129  171.00000  15.87195             13.89668
499.46188   832.43498   223.00000  21.85209             13.26077
502.66946   768.96653   239.00000  27.75622             11.01586
509.85581   616.16744   215.00000  18.66128             14.93921
514.49129   601.63763   287.00000  27.13198             13.81501
509.05310   1028.43805  226.00000  17.70900             16.30522
511.93249   1661.22785  237.00000  20.74042             14.71368
513.20884   191.00803   249.00000  20.93800             15.34509
511.15652   797.83913   230.00000  22.24057             13.22165
516.42857   1500.53175  252.00000  20.03432             16.22622
520.41754   156.34737   285.00000  20.03837             18.14338
521.07623   1448.36323  223.00000  18.49510             15.39133
527.31073   1090.52542  177.00000  16.06644             14.19947
538.38929   781.69286   280.00000  27.65186             13.25617
538.64883   271.23411   299.00000  24.16074             15.95826
536.71111   635.44444   270.00000  24.20475             14.41722
534.60902   1495.93985  133.00000  14.50351             11.75509
534.26950   1513.35461  141.00000  14.57430             12.33189
539.71038   579.74317   183.00000  16.13220             14.49777
540.96319   106.11043   163.00000  15.39137             13.54993
549.84431   473.90419   334.00000  28.21970             15.33186
544.49776   1096.70852  223.00000  21.18918             13.51067
545.62121   1467.11111  198.00000  18.41110             13.76104
550.37960   234.45609   353.00000  22.67454             20.35782
548.31441   563.45415   229.00000  18.22437             16.41504
546.56716   591.88806   134.00000  14.42944             11.88235
553.44538   45.74370    238.00000  20.67614             14.88342
552.95181   1804.01205  83.00000   14.20342             7.80836
559.61519   1067.76456  395.00000  27.04029             19.16080
556.29032   576.36774   155.00000  16.49299             12.00770
557.38542   1557.51042  192.00000  17.15762             14.32611
556.97285   1283.46606  221.00000  21.82008             13.00048
560.48858   530.20548   219.00000  20.26557             13.89618
565.50000   197.98729   236.00000  22.77263             13.30405
565.06757   517.66216   148.00000  14.29084             13.28817
564.55862   1663.75862  145.00000  14.46171             12.76618
570.33597   1254.53360  253.00000  21.60417             15.09094
571.83273   1084.30909  275.00000  25.88194             13.67797
566.57273   1846.99091  110.00000  13.12979             10.65641
574.81387   495.09124   274.00000  23.24421             15.07490
569.67164   731.33333   201.00000  19.46628             13.35505
572.62439   38.26829    205.00000  19.69772             13.34881
573.29843   1458.30890  191.00000  17.67581             14.29994
576.74675   1345.69156  308.00000  28.29461             14.17641
573.18966   1830.36207  116.00000  13.08133             11.31366
577.16667   1273.90667  150.00000  15.59719             12.30219
577.62295   1243.98361  61.00000   10.25406             7.56945
580.93243   1445.05405  148.00000  17.67038             10.75854
584.72100   589.47649   319.00000  22.15348             18.76552
577.71429   745.28571   28.00000   8.21322              4.62162
585.70635   785.04762   252.00000  21.66992             14.86388
588.99156   445.44726   237.00000  24.14982             12.65903
585.12593   673.51852   270.00000  21.21540             16.54229
590.00775   1143.75581  258.00000  21.47184             15.39824
588.56354   1334.27624  181.00000  17.62301             13.26776
590.27419   564.62097   248.00000  22.04965             16.30322
591.16940   1214.72678  183.00000  19.13719             12.33878
592.85088   1275.58333  228.00000  18.52654             15.83973
595.62284   194.35640   289.00000  21.49066             17.60472
595.16129   1246.38249  217.00000  20.25821             13.83144
596.94611   1465.01796  167.00000  16.17027             13.18423
598.67153   129.57299   274.00000  28.70605             12.21184
596.06803   634.76871   147.00000  17.42552             10.87059
605.07071   1257.14646  198.00000  22.74985             11.31731
600.49794   589.36626   243.00000  28.02007             11.71704
604.89362   502.83511   188.00000  18.86122             12.81539
605.78855   476.92952   227.00000  18.24888             15.95142
608.19249   641.24413   213.00000  21.78516             13.01900
613.25843   1193.34270  356.00000  28.95092             15.87231
613.16571   29.68571    175.00000  19.30599             11.77025
619.03050   1355.65577  459.00000  26.15534             22.61510
616.17033   463.02747   182.00000  17.76507             13.14219
617.88557   1135.23881  201.00000  19.72485             13.01883
618.43158   1404.61053  190.00000  17.55418             13.83365
620.68401   1010.44238  269.00000  21.24397             16.18280
627.28070   437.96842   285.00000  27.95156             13.44835
621.80328   766.46721   244.00000  20.42348             16.04551
622.25200   1030.10400  250.00000  19.72091             16.28473
625.26432   1312.37885  227.00000  22.37530             13.00770
625.47115   496.22115   208.00000  19.99658             13.26485
621.36937   1750.79279  111.00000  12.79414             11.31683
627.47692   948.30256   195.00000  20.52871             12.13138
625.51829   1125.28049  164.00000  16.86715             12.44660
628.52586   1448.74138  232.00000  20.38608             14.73500
625.92105   1861.15132  152.00000  17.40865             11.22727
630.08389   1387.14094  298.00000  21.01017             18.55650
630.26994   1167.30675  163.00000  16.23274             12.81242
639.72785   373.04008   474.00000  26.49991             25.11618
639.61395   1600.56279  215.00000  17.23218             16.04557
641.05941   1306.99505  202.00000  19.00107             13.67268
644.46690   1583.25436  287.00000  24.26488             15.12696
643.61017   1176.79096  177.00000  16.36286             13.80234
648.06250   1246.05515  272.00000  20.50628             17.26520
647.07656   1468.02871  209.00000  19.63305             13.93238
648.87108   1002.47038  287.00000  24.32891             15.09385
647.34615   1808.88942  208.00000  18.55640             14.45713
646.89796   326.66667   147.00000  15.30510             12.40584
650.78109   1705.56219  201.00000  18.60498             13.79708
654.54580   1322.11450  262.00000  20.25489             16.54325
657.98058   450.54369   309.00000  24.56513             16.17461
657.93750   752.77188   320.00000  22.69514             18.22596
654.88770   1224.87166  187.00000  16.25465             14.67091
656.36667   421.61111   180.00000  15.61709             14.70533
659.19388   317.65816   196.00000  17.31657             14.43748
660.57554   1452.33813  139.00000  15.43041             11.51836
660.75099   1510.09881  253.00000  20.98826             15.39226
660.90164   1424.16393  122.00000  12.84856             12.26358
664.59763   1435.44970  169.00000  20.27198             10.77261
664.67816   957.67241   174.00000  18.43907             12.14022
665.18182   1408.95694  209.00000  19.41346             14.38946
668.60987   718.03139   223.00000  19.77224             14.77628
670.12329   500.44749   219.00000  18.23301             15.28902
671.52209   1476.29317  249.00000  21.75600             14.73651
677.02899   1457.35266  207.00000  20.68052             12.79469
678.01266   737.42616   237.00000  28.11568             11.65977
677.96482   927.04020   199.00000  18.29569             13.97543
677.78571   1067.32418  182.00000  16.80558             14.36083
675.40556   1179.42778  180.00000  17.08775             13.56648
677.81421   1611.13661  183.00000  16.32755             14.52838
678.73797   954.39037   187.00000  17.14034             14.16474
683.76923   270.85830   247.00000  18.05554             17.49164
687.75676   1164.82770  296.00000  24.77689             15.50180
684.60699   1424.03057  229.00000  20.01730             14.78464
684.64024   453.03049   164.00000  15.73520             13.58894
685.97279   1547.52041  294.00000  20.57933             18.31721
686.08290   356.58549   193.00000  18.76243             13.29199
686.46460   317.92920   226.00000  20.89580             13.96233
690.75978   463.39106   179.00000  18.54889             12.40692
690.91845   1239.56223  233.00000  20.90305             14.23264
689.41736   222.37603   242.00000  23.88023             12.98534
688.42373   1318.96610  59.00000   10.24205             7.28169
694.55000   418.99167   240.00000  21.86008             14.13610
690.90722   1063.78351  97.00000   13.33278             9.37582
700.20677   785.84962   266.00000  20.68298             17.55537
693.36364   794.75000   44.00000   8.24744              6.75213
697.19283   816.08969   223.00000  19.48229             15.07364
701.80628   400.27225   191.00000  16.48176             14.80023
701.34783   1505.32609  184.00000  16.04654             14.67036
703.71233   311.93607   219.00000  17.37880             16.15009
703.18957   213.87204   211.00000  19.21399             14.03431
704.62439   439.48780   205.00000  18.29714             14.27222
705.52432   1623.06486  185.00000  17.25455             13.70257
706.18274   385.98477   197.00000  16.34553             15.45458
707.06957   1208.93478  230.00000  19.09503             15.51772
713.55375   1314.55700  307.00000  28.16400             14.05782
711.23137   830.15686   255.00000  22.67412             14.39250
712.24405   677.16071   168.00000  15.25368             14.14405
713.52889   1025.97333  225.00000  19.40535             15.02453
715.39000   255.49000   300.00000  20.79666             18.37527
711.11268   462.26056   142.00000  16.36341             11.09841
717.00990   1169.82178  404.00000  31.34825             16.69248
724.09541   1244.53710  283.00000  33.17471             11.11357
715.54884   694.91163   215.00000  20.29537             13.55676
717.76000   1088.14500  200.00000  18.60409             14.54063
719.11157   283.26446   242.00000  19.70091             15.75989
720.08050   1133.24458  323.00000  27.56163             15.12513
718.64516   1485.85484  124.00000  14.74872             10.84766
725.47260   460.89041   292.00000  24.80569             15.09357
724.49798   1325.51012  247.00000  23.36663             13.64586
723.62609   479.52174   230.00000  19.25686             15.25801
726.67742   905.12500   248.00000  22.82425             13.86723
723.40364   385.81091   275.00000  26.98917             13.14696
725.77000   1001.49500  200.00000  18.21085             14.37213
730.76190   672.76786   336.00000  23.66508             18.42371
732.40948   268.12069   232.00000  18.07262             16.44790
731.18848   636.15707   191.00000  17.44869             13.99491
734.08874   839.02389   293.00000  22.62732             17.78232
735.12658   1502.00422  237.00000  19.68207             15.46593
734.99605   241.78656   253.00000  21.02986             15.65298
736.42515   1058.61677  167.00000  15.41095             13.92334
736.73039   1136.51961  204.00000  17.20672             15.49746
740.22791   1439.48372  215.00000  21.60205             12.87344
739.84561   1533.62807  285.00000  23.91878             15.24003
739.88202   794.28090   178.00000  16.84483             13.57386
744.24164   1097.62454  269.00000  20.14685             17.08975
749.12411   707.07447   282.00000  22.20619             16.27589
744.82900   892.34201   269.00000  22.39700             15.34938
748.17808   1172.99543  219.00000  19.53969             14.31076
746.67943   1114.51675  209.00000  19.20436             13.92301
748.48684   1043.55263  228.00000  18.14969             16.25071
747.13939   489.76970   165.00000  16.22873             13.02314
750.53509   409.89474   228.00000  18.04692             16.23315
750.97409   1128.96891  193.00000  18.12037             13.64536
751.18702   185.83969   262.00000  19.46440             17.24758
753.19910   474.33937   221.00000  17.34055             16.27244
754.04274   969.38462   234.00000  17.90445             16.70791
756.53894   1151.99688  321.00000  23.24897             17.75245
755.01992   1204.12351  251.00000  20.31448             15.88441
750.91589   1891.85981  107.00000  15.29221             9.29079
753.43407   395.45055   182.00000  16.56042             14.03355
757.90233   858.38140   215.00000  21.37014             13.05729
756.18771   215.47440   293.00000  23.32807             16.16991
757.20000   1941.17436  195.00000  19.82398             12.80289
760.17219   799.25497   302.00000  21.01887             18.39317
763.83668   1571.27221  349.00000  24.80558             18.16478
761.46531   930.46939   245.00000  19.32516             16.33795
759.95238   1392.60847  189.00000  17.03289             14.20802
763.45752   372.62092   153.00000  17.01677             11.51967
765.47150   840.55440   193.00000  19.68305             12.62447
767.39227   1173.13812  181.00000  19.64328             11.79446
765.99379   826.48447   161.00000  15.01477             13.80136
765.69307   869.64356   101.00000  15.22949             8.63380
766.11647   1413.71486  249.00000  21.18364             15.02824
771.28936   715.97447   235.00000  23.02818             13.58705
767.55372   1366.83058  242.00000  19.50383             16.19778
776.91957   481.23861   373.00000  33.82700             14.36656
769.88393   165.61161   224.00000  18.90868             15.22371
772.45141   444.06270   319.00000  23.60541             17.41726
773.74825   1472.46853  286.00000  19.79493             18.52907
775.90114   1347.42966  263.00000  18.89582             17.97816
774.53403   909.25131   191.00000  17.68980             13.78937
779.98324   361.72067   179.00000  17.36583             13.21974
782.50804   1023.50161  311.00000  25.45563             16.17619
785.23041   1207.54378  217.00000  22.00106             12.62412
785.23950   173.70588   238.00000  18.91599             16.12611
789.46930   1586.16667  228.00000  18.48361             15.88120
788.86735   352.12245   98.00000   12.52313             10.15175
790.02358   428.55189   212.00000  19.85411             13.72603
792.37017   1313.50276  181.00000  16.36957             14.23440
797.61111   989.15033   306.00000  22.23408             17.72305
798.77982   1128.74312  218.00000  20.05162             13.90631
798.57959   1162.98367  245.00000  21.27759             14.75374
798.28235   453.09020   255.00000  20.67929             15.85660
800.24569   1600.04310  232.00000  21.40979             14.14718
797.79348   1518.03261  92.00000   12.16204             9.66811
799.65969   347.28796   191.00000  18.93144             12.87768
805.63710   1185.20161  248.00000  24.28817             13.02002
808.97826   704.46584   322.00000  26.14758             16.20612
808.97610   1032.96016  251.00000  26.76631             12.04607
804.85357   1296.26786  280.00000  23.86858             15.59487
807.77273   422.61364   220.00000  17.43521             16.15602
808.65595   956.33441   311.00000  32.28562             12.39545
812.82143   1285.10119  336.00000  31.44127             14.74258
809.08065   466.72581   186.00000  16.73141             14.37591
810.16216   1506.08108  37.00000   6.96001              6.76276
814.65946   1969.44865  185.00000  16.30114             14.43969
814.82439   1167.25366  205.00000  20.03840             13.75405
818.94141   1493.48828  256.00000  24.74936             13.80125
821.68952   1112.85887  248.00000  22.07055             14.45117
824.08730   1041.60714  252.00000  23.21307             13.90980
822.81959   452.89175   194.00000  16.57139             14.98248
823.59236   1005.73248  157.00000  17.73913             11.31780
822.44444   345.28019   207.00000  18.13199             14.54604
827.27536   818.06377   345.00000  24.97159             17.89824
826.96040   1136.32673  202.00000  19.49009             13.26154
827.31641   733.90625   256.00000  19.60677             16.86771
826.03646   1222.17708  192.00000  19.24450             12.98882
832.05904   679.20664   271.00000  25.83217             13.70016
833.69672   1771.67213  244.00000  21.73083             14.33061
836.42105   990.64115   209.00000  24.05125             11.22834
833.17112   1250.97861  187.00000  17.72548             13.44369
835.47826   469.20497   161.00000  14.68454             14.00825
839.90338   1143.26570  207.00000  20.11580             14.16905
843.63897   1276.55874  349.00000  26.80332             17.00843
844.37179   1224.26068  234.00000  27.03403             11.39571
840.52083   1110.55417  240.00000  20.97010             14.81669
840.69697   1562.47475  198.00000  18.83508             13.42704
847.33810   887.65714   210.00000  26.48743             10.35750
844.33977   1504.44015  259.00000  18.96018             17.44215
843.30412   712.87629   194.00000  20.85200             12.14370
860.22188   1185.51976  329.00000  43.65856             10.01727
847.60221   1213.01657  181.00000  15.82800             14.62077
850.91146   1825.48958  192.00000  18.61745             13.27329
848.90769   2010.12308  65.00000   11.58962             7.23732
855.80612   318.75510   196.00000  16.96737             14.77507
857.02062   401.35052   194.00000  20.15562             12.43313
853.52542   710.63559   118.00000  13.24764             11.67028
858.32195   898.69756   205.00000  22.08674             12.01545
861.82699   827.86851   289.00000  25.58780             14.72459
857.25140   456.60894   179.00000  16.08980             14.18182
862.77376   699.36652   221.00000  25.68894             11.20708
857.03546   1875.62411  141.00000  13.97226             13.05303
863.13587   632.64674   368.00000  29.91252             16.59206
862.94239   1168.87243  243.00000  18.75144             16.60991
862.71223   962.04317   139.00000  16.09202             11.08022
862.95833   1831.52976  168.00000  16.57722             12.94352
867.73516   1726.21005  219.00000  21.98817             13.12908
869.05988   324.18563   167.00000  17.13707             12.47895
870.17757   950.99533   214.00000  20.56654             14.38290
874.12626   914.41919   198.00000  18.20605             13.93848
875.51777   790.21827   197.00000  21.72276             11.89053
876.95735   401.31754   211.00000  19.03774             14.19892
879.44398   1335.46473  241.00000  24.68025             13.26063
877.86611   1029.60669  239.00000  22.01565             13.95440
880.48374   769.16260   246.00000  20.13013             15.71419
884.42326   1228.30698  215.00000  20.80424             13.23631
885.81579   782.61579   190.00000  18.80707             13.11086
888.65686   814.64216   204.00000  20.48014             12.73269
890.07027   475.60000   185.00000  19.03134             12.43758
888.38835   1144.28641  206.00000  20.43553             14.30403
887.19880   1898.58434  166.00000  16.59945             12.82323
889.72589   1123.54822  197.00000  17.84000             14.15030
893.00000   1347.54701  234.00000  21.03088             14.35420
895.90987   1090.93991  233.00000  21.84123             13.66523
896.60474   1170.37154  253.00000  19.95181             16.31119
896.25714   1782.74286  210.00000  17.52327             15.29394
898.47312   464.97312   186.00000  17.58170             13.61137
901.43590   1514.56777  273.00000  23.74737             14.76942
898.76000   1972.17714  175.00000  15.91951             14.07743
904.76208   1032.73234  269.00000  20.53210             17.84177
907.63922   397.99608   255.00000  22.63674             14.38752
903.83065   503.50806   124.00000  13.78846             11.45535
903.04317   517.30216   139.00000  16.25480             11.06502
909.73585   790.30189   265.00000  26.91167             12.73039
912.05386   916.69321   427.00000  35.01651             15.92903
907.14679   703.42202   218.00000  17.80914             15.71091
914.77622   1244.33566  286.00000  28.54399             13.27416
911.91089   1110.77228  202.00000  20.74347             12.45185
917.02518   1018.53597  278.00000  24.84415             15.75635
907.88172   1169.12903  93.00000   13.96374             8.70837
911.12281   510.26316   114.00000  15.55053             9.64947
912.19632   1086.04294  163.00000  18.17119             11.85841
916.62205   1127.40945  254.00000  21.84511             15.02009
914.39171   482.25806   217.00000  22.92289             12.13965
916.81218   380.23858   197.00000  16.73907             15.00976
921.06485   1053.69247  478.00000  31.68926             19.92961
917.19626   1765.01869  214.00000  18.58694             14.68667
917.15459   1950.23671  207.00000  17.01105             15.52098
922.00000   1930.28082  292.00000  24.33222             15.38178
922.85167   887.13876   209.00000  29.11323             9.33321
921.12261   1171.78544  261.00000  20.49224             16.64582
922.17544   636.19883   171.00000  17.95126             12.13551
927.22381   844.93333   210.00000  19.59010             14.12473
929.77011   1531.88123  261.00000  24.53312             13.67707
930.08537   1349.78862  246.00000  21.83123             14.51313
927.05882   897.51261   119.00000  12.94426             11.75742
929.28977   1111.22727  176.00000  17.57011             12.77546
937.92364   711.73455   275.00000  24.30109             14.92587
937.26633   957.59296   199.00000  22.11108             11.60913
934.91480   1260.76682  223.00000  17.84680             15.95520
938.01840   1146.21472  163.00000  18.63788             11.19856
940.78682   905.08915   258.00000  22.87892             14.49443
942.87500   940.91667   264.00000  21.05649             16.34726
944.29966   771.38047   297.00000  26.08941             14.98756
942.15603   881.33333   141.00000  14.81913             12.21378
945.76623   1727.02165  231.00000  18.27239             16.09037
947.44615   1904.10256  195.00000  17.29106             14.85742
947.64286   1822.72143  140.00000  16.25545             11.21317
949.15049   1745.66505  206.00000  17.67290             14.87020
954.37255   1370.79608  255.00000  23.80158             13.72485
953.13415   825.58537   246.00000  24.16158             13.29742
952.63441   908.86022   186.00000  20.97799             11.52322
954.27419   1240.88710  62.00000   9.39234              8.41981
961.93839   654.30806   211.00000  20.66090             13.33147
963.27468   1130.75966  233.00000  21.10181             14.22921
961.62195   1918.07317  164.00000  15.66032             13.34684
970.46133   1185.53867  362.00000  28.53300             16.31754
964.04598   1175.28736  87.00000   13.25155             8.47756
968.22018   1309.69419  327.00000  24.18200             18.04425
964.41290   1983.38710  155.00000  15.17550             13.13496
969.03943   943.15412   279.00000  21.67687             16.59346
966.14932   1159.93665  221.00000  19.37616             14.75098
968.64516   1228.11290  310.00000  31.32215             13.52397
970.04484   778.21973   223.00000  18.52525             16.93384
970.20115   1535.24138  174.00000  16.26307             13.74821
970.06950   966.09653   259.00000  21.87846             15.14495
971.49780   1690.59031  227.00000  19.30999             15.03119
975.35106   755.19681   188.00000  20.16435             12.20040
979.47826   768.99457   184.00000  20.87920             11.35815
977.72464   1128.02899  138.00000  15.56854             11.44058
980.88281   795.74609   256.00000  19.76601             16.74040
981.14655   811.40948   232.00000  20.71024             14.32110
981.67500   1626.00357  280.00000  20.61409             17.48462
982.09626   665.78075   187.00000  21.23433             11.29259
983.47024   1221.19643  168.00000  16.69575             12.87861
986.07764   1581.55901  322.00000  26.20240             16.18726
986.61321   1373.96698  212.00000  20.88147             13.01835
986.93066   1000.37226  274.00000  21.57927             16.42715
987.22467   1897.27753  227.00000  18.37563             15.79707
986.35833   908.74167   120.00000  16.17741             9.64550
988.01835   1716.97706  218.00000  17.86034             15.61592
992.83108   1286.63851  296.00000  24.32592             15.79685
996.10920   1142.01149  174.00000  20.08634             11.05583
996.02312   1850.71098  173.00000  15.66083             14.06037
1001.77674  1495.25581  430.00000  27.53551             20.09622
1000.46842  906.80000   190.00000  17.76276             14.55866
1000.86174  1430.22186  311.00000  23.54075             17.20110
1004.02417  934.12991   331.00000  22.92055             18.67516
1000.32367  1694.63285  207.00000  17.12691             15.43055
1002.13423  1757.30201  298.00000  23.96786             16.25991
1001.45714  1272.14694  245.00000  19.54784             16.19136
1001.27568  1538.77297  185.00000  15.64137             15.11788
1007.44796  1793.87783  221.00000  18.26576             15.44273
1011.23316  1249.33679  193.00000  23.33519             10.84688
1008.30078  1404.81641  256.00000  21.75859             15.13116
1012.58947  912.11579   190.00000  21.23249             12.74184
1012.08511  840.05957   235.00000  19.33288             15.57272
1011.40212  1337.10582  189.00000  17.25254             14.02441
1010.50360  1855.55396  139.00000  14.69441             12.13468
1015.36967  1709.21801  211.00000  17.88194             15.08837
1016.92271  660.02899   207.00000  18.59033             14.36955
1018.92381  786.56190   315.00000  24.35505             19.47333
1019.56471  815.63922   255.00000  20.57744             15.83257
1019.54762  1000.67143  210.00000  19.60743             13.98892
1021.86415  1602.84528  265.00000  19.31248             17.63773
1020.34783  1161.98551  69.00000   11.09891             7.93304
1031.71765  1401.18039  255.00000  28.38819             11.70489
1030.32456  1137.69737  228.00000  19.92580             14.81657
1032.08387  1699.45161  310.00000  21.91484             18.30995
1032.87166  1802.06417  187.00000  20.61601             11.84113
1035.37811  805.05970   201.00000  23.68116             12.12711
1035.96818  1011.87727  220.00000  26.18419             12.19628
1033.67526  1562.27835  194.00000  19.20185             12.90373
1040.51210  892.25000   248.00000  25.49335             14.78195
1039.20455  1848.18939  264.00000  25.70604             13.42606
1038.53589  860.70813   209.00000  16.67255             16.01947
1038.90909  1893.87273  165.00000  18.11288             11.77845
1038.49474  1971.75789  190.00000  17.51504             14.00567
1039.79098  1765.33607  244.00000  19.04949             16.40635
1040.14912  1934.96053  228.00000  21.73584             13.38029
1043.55785  1382.66116  242.00000  20.76590             14.88171
1044.41921  1681.48908  229.00000  18.96289             15.45429
1046.79821  626.50673   223.00000  21.55217             13.28473
1045.04902  1147.16667  204.00000  17.91931             15.17944
1048.15589  795.40684   263.00000  21.72609             15.86482
1047.33824  1218.61029  272.00000  20.94447             16.75107
1051.99390  909.11585   164.00000  22.39509             9.56113
1050.85542  1303.31325  249.00000  18.47567             17.33783
1058.31875  1911.31250  160.00000  18.77794             11.08606
1061.87773  1680.88646  229.00000  17.85530             16.35123
1059.48168  1880.59162  191.00000  19.35947             12.90412
1065.50671  757.37584   298.00000  24.18984             16.12370
1056.84615  1485.97436  39.00000   7.68614              6.40679
1065.35039  1578.10630  254.00000  28.10509             11.73015
1066.44788  861.50193   259.00000  23.62803             14.22071
1072.24939  1268.76284  409.00000  27.33951             19.73903
1068.04878  596.92073   164.00000  16.19052             13.11382
1076.24348  668.45000   460.00000  28.35576             21.25306
1070.33871  1855.52688  186.00000  19.22062             12.40665
1071.86175  1810.72811  217.00000  19.18132             14.42695
1073.43798  1405.95736  258.00000  21.39354             15.49572
1076.77151  816.17211   337.00000  27.43406             15.93637
1079.09050  1360.81448  221.00000  23.01344             12.38371
1076.55479  608.94521   146.00000  15.02228             12.37937
1080.18531  1344.19231  286.00000  23.47983             15.59823
1078.83203  1787.50000  256.00000  18.96343             17.24455
1088.44377  1242.65957  329.00000  31.02296             14.50330
1086.41042  699.92834   307.00000  30.60644             13.74450
1089.21053  889.58647   266.00000  27.92654             12.31913
1089.85824  590.68199   261.00000  24.80577             13.68021
1089.58608  781.69963   273.00000  22.16427             17.10397
1088.13559  1277.90678  118.00000  15.11127             10.00150
1094.25506  810.19838   247.00000  20.11930             15.77027
1092.63721  1412.21395  215.00000  17.20194             16.05019
1100.75897  1155.92970  697.00000  35.79082             25.91155
1097.15538  1588.71713  251.00000  24.67854             13.21521
1100.54505  844.80180   222.00000  19.43136             14.88318
1103.47773  1776.93522  247.00000  19.61619             16.14974
1099.95652  1939.92391  92.00000   12.04682             9.88472
1101.23741  1956.82014  139.00000  14.49868             12.41700
1105.03911  1407.51397  179.00000  16.89079             14.24341
1109.53498  737.39918   243.00000  21.70378             14.44410
1102.76923  1473.75385  65.00000   10.90609             7.59586
1108.20297  1267.88614  202.00000  20.31222             12.78662
1108.36932  823.55682   176.00000  16.98395             13.40090
1109.87283  1724.18497  173.00000  16.98634             13.21933
1118.46468  1134.98513  269.00000  22.21073             15.73568
1119.35055  1376.20295  271.00000  20.60173             16.83561
1123.80224  1279.83955  268.00000  30.17346             11.63317
1130.04926  1171.10099  406.00000  37.59366             13.91858
1120.19048  1879.97436  273.00000  26.31729             13.46477
1124.21277  1464.76170  235.00000  18.39722             16.37626
1119.67647  1478.08824  34.00000   8.18652              5.21360
1119.87500  577.12500   40.00000   8.26438              6.13188
1127.85774  1681.59414  239.00000  18.53555             16.44724
1124.33333  1336.77778  36.00000   7.03166              6.49693
1131.24651  1090.87442  215.00000  20.16892             13.81167
1125.57143  1322.06122  49.00000   8.88486              6.97659
1125.62667  1732.33333  75.00000   12.39005             7.73728
1137.34831  1489.77528  267.00000  22.63853             15.05591
1131.83582  1075.08955  67.00000   10.36073             8.28090
1135.41872  1240.33990  203.00000  19.01075             14.20354
1136.98324  1133.93296  179.00000  17.77856             12.99087
1137.21429  1446.49580  238.00000  18.83291             16.21230
1137.82039  531.04369   206.00000  21.05874             12.49241
1141.22963  2036.37037  135.00000  15.51495             11.45085
1141.07547  723.45283   53.00000   10.46366             6.45801
1144.02105  798.82105   190.00000  18.85107             13.24711
1150.69653  1335.30636  346.00000  29.89414             14.91288
1144.11765  731.61765   34.00000   7.52743              5.70455
1147.46847  1158.24324  111.00000  14.71426             9.66493
1152.07983  1280.28571  238.00000  24.27996             12.63048
1152.54150  1142.75099  253.00000  23.11242             14.16635
1158.28529  1069.27647  340.00000  26.42044             16.55223
1161.11064  1812.86809  235.00000  27.56405             11.44181
1164.36860  1437.21843  293.00000  24.29603             15.47323
1167.01993  727.26578   301.00000  26.94448             14.99970
1160.48305  2031.58051  236.00000  19.57831             15.55869
1161.72152  784.30380   158.00000  14.76293             13.77198
1164.22318  835.58369   233.00000  22.84097             13.20062
1165.20000  1394.84242  165.00000  17.32988             12.23291
1178.07759  758.65948   232.00000  22.36720             13.59126
1178.57653  1136.00000  392.00000  24.26657             20.86152
1178.22222  1111.84967  153.00000  19.92057             9.79427
1181.37860  1342.11934  243.00000  22.83627             13.59859
1176.55030  1833.78107  169.00000  16.46576             13.08689
1181.84028  1383.94444  288.00000  24.04174             15.78971
1174.81132  1486.56604  53.00000   8.43592              7.98865
1178.36310  1819.84524  168.00000  15.85444             13.61901
1181.36970  1229.71515  165.00000  16.42308             12.81135
1181.68750  1031.56771  192.00000  17.17107             14.60657
1180.25641  1321.43590  39.00000   8.04897              6.11379
1196.16364  1477.56818  220.00000  17.72856             15.95547
1201.23047  756.14062   256.00000  23.70756             13.84640
1199.78689  1156.58197  122.00000  17.31670             9.02924
1195.67647  1323.41176  34.00000   6.90018              6.23085
1207.93443  1064.28852  305.00000  25.06775             15.76313
1211.20308  1290.80308  325.00000  27.16726             15.88907
1209.59859  1118.18310  142.00000  14.64439             12.46084
1212.05581  712.66047   215.00000  20.32110             13.59773
1211.42439  845.71707   205.00000  20.15924             13.12969
1209.55952  545.50000   84.00000   12.72337             8.43814
1211.09302  997.23256   215.00000  20.36006             13.58038
1218.35905  1215.72997  337.00000  26.21865             16.55887
1220.14164  1439.16431  353.00000  31.77616             14.38972
1213.42735  507.63248   234.00000  21.67246             13.79796
1221.45118  1794.94613  297.00000  31.05750             12.88934
1219.51037  1107.08299  241.00000  19.11495             16.63273
1218.53216  783.02924   171.00000  15.26141             14.24988
1223.47440  1459.66553  293.00000  24.58674             15.39156
1221.42169  679.18675   166.00000  16.64784             12.77141
1224.43439  1426.05882  221.00000  20.82371             13.63271
1224.91772  1875.15190  158.00000  17.44873             12.00743
1227.95495  700.35736   333.00000  31.16849             14.39716
1229.54393  1326.65690  239.00000  22.21596             13.74184
1228.69406  828.45662   219.00000  19.21407             14.77424
1229.72764  1000.10569  246.00000  22.46362             14.60940
1234.09489  731.17883   274.00000  24.20864             14.52614
1231.84729  1289.41379  203.00000  17.73144             14.62168
1233.89308  1110.63522  159.00000  15.90764             13.06129
1236.62577  979.13190   326.00000  31.24830             13.89951
1238.87336  1230.25328  229.00000  21.31142             13.78623
1238.65363  778.37430   179.00000  15.73499             14.59941
1240.36224  1168.79592  196.00000  18.08796             14.04144
1243.87603  1497.51653  242.00000  25.60725             12.27988
1245.78175  1044.31746  252.00000  23.11865             14.22643
1246.67347  1078.26020  196.00000  21.19101             12.36143
1246.14010  1133.48309  207.00000  18.13508             14.76313
1245.98361  959.18579   183.00000  18.23629             12.78302
1248.76437  1067.74713  174.00000  18.03779             12.49515
1255.80186  561.06811   323.00000  28.37669             15.70961
1251.44017  1392.12821  234.00000  22.18483             13.83635
1251.94262  1185.56557  244.00000  20.12705             15.82569
1253.11647  1469.06827  249.00000  20.39381             15.62389
1251.59236  835.66242   157.00000  16.47732             12.37588
1252.45050  806.92079   202.00000  19.87060             13.03118
1256.00000  1275.95200  125.00000  16.22937             9.90165
1258.20870  627.20000   230.00000  18.83405             15.77154
1258.50847  1029.06780  177.00000  19.54702             11.56890
1258.82422  962.59766   256.00000  20.97453             15.90550
1257.40000  1286.27273  110.00000  12.63042             11.24579
1265.79605  846.07566   304.00000  26.34849             16.10164
1264.57416  1040.53589  209.00000  19.78423             13.75162
1267.12420  1372.85350  314.00000  26.52349             15.52039
1269.10648  1063.61574  216.00000  17.25455             16.53379
1270.49362  687.80426   235.00000  19.89099             15.26972
1272.84830  725.46440   323.00000  22.78569             18.86016
1273.89597  1136.93289  298.00000  26.93603             14.25570
1270.67308  1278.28365  208.00000  18.85124             14.68184
1273.47203  1437.60140  286.00000  19.76854             18.69351
1274.95266  1074.43195  169.00000  21.17071             10.49311
1273.53623  788.07971   276.00000  20.84340             17.07386
1272.00794  926.75397   252.00000  23.73695             13.57052
1273.48168  1218.37696  191.00000  18.16083             13.43706
1273.54819  598.77711   166.00000  15.99469             13.33039
1274.94220  617.78613   173.00000  18.06614             12.67638
1276.84393  817.59538   173.00000  17.62544             12.79990
1272.23881  1339.85075  67.00000   10.01533             8.55746
1278.55596  1114.54874  277.00000  22.27394             16.02480
1280.42929  1420.30303  198.00000  20.38853             12.39138
1280.43367  1236.63776  196.00000  18.51472             13.52301
1280.68465  1822.48963  241.00000  19.15988             16.10505
1283.96739  604.70109   184.00000  18.89738             12.77085
1286.87764  707.60338   237.00000  17.79379             17.10972
1285.34921  917.85185   189.00000  16.09103             15.06893
1289.62857  1057.72381  210.00000  20.92922             12.84586
1290.85922  1290.16019  206.00000  18.51286             14.33588
1290.40789  1217.75000  152.00000  15.35407             12.63916
1292.36296  1503.69630  270.00000  20.74072             16.64671
1294.78659  815.41463   164.00000  18.41432             11.46657
1296.43738  879.26975   519.00000  34.06019             20.86775
1296.99015  1178.42365  203.00000  21.19701             12.22736
1297.57895  1471.44498  209.00000  18.57803             14.40928
1303.19583  1379.14583  240.00000  22.45778             13.73660
1302.87978  692.97814   183.00000  17.37977             13.67379
1300.12698  1023.93651  63.00000   11.58888             6.94497
1303.44961  662.94574   129.00000  14.75473             11.50569
1309.09735  561.47788   226.00000  21.27420             13.60737
1313.93040  1319.83883  273.00000  23.01681             15.57931
1307.94872  1517.07692  39.00000   8.81112              5.70845
1315.45596  681.16580   193.00000  23.20325             10.98743
1315.22059  817.86471   340.00000  26.03002             17.03151
1316.20915  699.56209   153.00000  14.63711             13.45143
1322.18943  1181.55507  227.00000  25.48734             11.56831
1320.11696  1192.38012  171.00000  17.37202             12.59204
1323.83180  1154.14067  327.00000  22.19943             19.47994
1326.28244  1257.34351  262.00000  25.00961             13.46284
1323.66265  1954.04217  166.00000  16.29041             13.06342
1324.02694  898.78114   297.00000  28.02836             13.72371
1326.38627  1056.20601  233.00000  18.36659             16.32493
1328.27200  530.48400   250.00000  23.13417             13.87395
1324.90355  943.40609   197.00000  18.72450             13.48158
1324.45946  855.67568   37.00000   7.60141              6.22733
1330.45455  1230.43478  253.00000  22.78187             14.49437
1332.08475  696.74011   177.00000  20.21649             11.43475
1332.29446  981.86006   343.00000  28.29423             15.65885
1333.82474  1406.31615  291.00000  20.68325             18.05744
1339.13077  1117.24615  260.00000  22.87404             14.57384
1335.82439  1426.79512  205.00000  17.55987             14.89960
1341.63072  589.62092   306.00000  26.87263             14.80929
1339.24291  924.64372   247.00000  23.38521             13.75269
1335.21429  1319.04762  42.00000   7.82902              6.81960
1349.89068  1299.52412  311.00000  33.17596             12.13446
1343.84472  1060.05590  161.00000  15.98112             12.88145
1337.95000  1353.25000  20.00000   5.70065              4.38891
1342.30303  1378.09091  33.00000   6.87455              6.07925
1350.05612  1445.68878  196.00000  17.61526             14.23780
1353.02381  1053.88095  168.00000  18.12362             12.26934
1352.02623  1217.02295  305.00000  25.70748             15.47450
1354.66216  373.80180   222.00000  18.64832             15.40276
1348.05556  1360.88889  18.00000   5.38593              4.22563
1358.20354  1111.55752  226.00000  25.70010             11.33527
1356.66562  1165.10410  317.00000  23.82860             17.14887
1359.59316  920.05323   263.00000  20.57279             16.57470
1363.98143  1362.51194  377.00000  30.15290             17.26573
1371.40996  837.26820   261.00000  27.08490             12.45286
1365.82857  1217.58857  175.00000  15.68779             14.36008
1372.67596  1166.13589  287.00000  38.68786             11.76923
1368.31522  570.67935   184.00000  16.31665             14.40447
1374.08974  1042.75641  234.00000  23.53555             13.15033
1371.76630  674.40761   184.00000  16.07815             14.59765
1375.28745  1077.25101  247.00000  20.29325             15.80370
1376.19776  871.48134   268.00000  23.82109             14.58015
1379.12381  1174.20476  210.00000  19.48922             13.93239
1384.58609  1489.67550  302.00000  24.13790             16.36045
1382.94884  681.60465   215.00000  22.27331             12.55310
1382.24762  847.07619   210.00000  20.68906             13.75131
1387.85145  1209.38406  276.00000  23.73518             15.36089
1385.46721  1455.25820  244.00000  21.88359             14.28143
1384.95177  885.61415   311.00000  24.17060             17.10980
1391.84118  800.08824   340.00000  24.41175             20.26320
1384.73333  428.50000   180.00000  17.56711             13.13320
1390.84343  444.69697   198.00000  18.26854             13.82703
1392.04348  1349.89855  69.00000   9.88701              8.92610
1397.11255  1362.06494  231.00000  21.57898             13.87700
1399.00532  768.47340   188.00000  17.12959             13.99131
1401.38318  1169.16822  214.00000  17.59235             15.55715
1404.71595  1150.39300  257.00000  23.63192             13.93969
1404.92784  1106.83505  194.00000  19.58557             12.65116
1404.36948  475.92771   249.00000  22.28777             14.33084
1403.10714  1345.82143  28.00000   7.04963              5.00374
1414.87129  908.59076   303.00000  29.25302             13.53578
1411.39643  833.43929   280.00000  20.10617             17.89086
1412.51905  1070.66667  210.00000  23.20846             11.78065
1411.79094  1267.94425  287.00000  24.31261             15.11057
1409.78723  1341.06383  47.00000   8.30179              7.19880
1416.06280  687.48792   207.00000  19.70754             13.63469
1415.26087  1210.07246  207.00000  17.73250             14.90903
1416.22973  1373.04505  222.00000  17.76745             15.93397
1420.97746  1130.79437  355.00000  28.76760             15.95203
1423.38390  672.77399   323.00000  22.99073             18.96689
1417.13793  1255.41379  29.00000   6.34106              5.82995
1419.07895  1337.05263  38.00000   7.12765              6.74342
1424.65992  1227.81781  247.00000  19.24594             16.37632
1427.87923  555.31884   207.00000  17.23943             15.35396
1432.18113  795.58491   265.00000  20.32181             16.79484
1426.64706  1383.68627  51.00000   8.57908              7.55686
1432.89961  1447.15830  259.00000  19.96967             16.66295
1435.11661  1061.46996  283.00000  22.97145             15.93658
1433.29747  1807.41772  158.00000  16.13374             12.61307
1432.11667  1366.41667  60.00000   9.07057              8.39419
1438.05793  609.54573   328.00000  21.64312             19.44161
1439.32536  1079.13397  209.00000  21.34801             12.48786
1439.98966  1118.90690  290.00000  21.97960             16.91066
1441.43023  1143.10853  258.00000  25.51549             13.11649
1447.68085  829.34043   329.00000  33.36463             14.99133
1442.36777  1230.19008  242.00000  21.38466             14.68301
1441.72973  332.55135   185.00000  20.71464             11.40061
1441.65054  504.42473   186.00000  16.24028             14.68721
1441.69176  1210.74194  279.00000  22.06940             16.22746
1443.74308  1158.27273  253.00000  18.66088             17.32484
1447.66812  1334.65502  229.00000  20.22310             14.51898
1450.86532  1498.81818  297.00000  28.09745             13.68491
1446.33955  349.49254   268.00000  26.35098             13.07229
1450.96429  653.67143   280.00000  24.39242             14.88448
1449.24590  595.75956   183.00000  16.85850             13.86497
1454.35323  414.33333   201.00000  20.10093             12.84501
1454.66337  1455.17822  202.00000  19.06309             13.56977
1455.37931  519.00431   232.00000  19.15991             15.53335
1455.15909  1098.01705  176.00000  17.90249             12.97201
1455.07895  557.58947   190.00000  15.95523             15.28062
1462.28882  904.66460   322.00000  22.05579             18.85407
1463.22179  41.75097    257.00000  20.79375             15.98698
1464.87732  1189.29368  269.00000  22.55203             15.26570
1463.89630  1091.80000  135.00000  16.79973             10.34415
1472.13080  1134.45570  237.00000  21.99038             13.98432
1480.00278  504.39167   360.00000  22.95539             21.17063
1476.38117  1311.11211  223.00000  18.04489             15.76167
1488.50000  1053.88199  322.00000  36.45991             11.37797
1483.36937  1198.99099  222.00000  20.06591             14.37479
1484.88417  31.31660    259.00000  21.41188             15.44421
1490.56934  1162.62044  274.00000  28.96514             12.74154
1489.71217  318.91098   337.00000  22.16458             19.64318
1490.85204  670.00510   196.00000  16.78941             14.90274
1492.51111  1152.07407  135.00000  14.55078             11.83872
1494.78281  1468.10860  221.00000  21.05481             13.42602
1497.17480  1191.93496  246.00000  19.03749             16.78974
1498.51698  1308.49811  265.00000  21.89052             15.47391
1501.00000  889.11273   275.00000  22.73737             15.47836
1501.17614  650.27841   176.00000  17.11444             13.20796
1508.12234  544.69681   188.00000  16.86483             14.21399
1512.04825  1096.81140  228.00000  19.79025             14.81178
1513.56420  672.84825   257.00000  24.80642             13.19375
1518.36900  1157.58672  271.00000  24.35463             14.57565
1521.13620  898.32616   279.00000  27.14596             13.40282
1520.71585  1259.80874  183.00000  18.74433             12.55534
1530.77225  1077.02880  382.00000  31.38792             16.27793
1526.63095  532.84524   168.00000  17.74022             12.14431
1526.77169  1132.84475  219.00000  19.78529             14.24439
1530.65487  1197.61062  226.00000  19.05718             15.20352
1530.55825  1268.24757  206.00000  17.08344             15.78418
1531.37379  306.68447   206.00000  16.81368             15.65886
1534.31392  216.45955   309.00000  24.31715             16.27173
1533.10000  370.34500   200.00000  18.69520             13.71806
1545.50435  1177.19130  345.00000  29.37322             15.08975
1540.30328  1811.19262  244.00000  21.14294             14.94117
1540.43956  355.68132   182.00000  18.97752             12.28127
1544.52451  572.52941   204.00000  21.74454             11.93176
1545.27753  1110.32159  227.00000  17.88256             16.31426
1550.38372  637.51938   258.00000  28.99606             11.47689
1547.01676  1267.39106  179.00000  19.14938             12.00050
1554.87701  1195.85561  374.00000  28.50748             17.65533
1552.77619  159.53333   210.00000  17.34899             15.46311
1556.73276  1235.39655  232.00000  25.21878             11.76535
1554.77778  461.12346   162.00000  17.46347             11.87458
1555.80275  19.54128    218.00000  20.57594             13.55178
1555.81325  616.92169   166.00000  19.12382             11.22323
1558.84541  1281.92271  207.00000  22.43179             11.91876
1566.22545  800.47273   275.00000  34.32995             10.50388
1563.50193  315.42085   259.00000  20.30924             16.28908
1564.73057  108.15544   193.00000  17.86384             13.80239
1562.07576  137.01515   66.00000   9.49487              8.83144
1564.72986  1369.17062  211.00000  19.59430             13.76387
1568.81061  350.17424   264.00000  19.19326             17.59860
1567.05000  196.78750   160.00000  17.33018             11.80265
1572.61268  1247.89085  284.00000  20.08765             18.07440
1575.72372  1388.60961  333.00000  22.27574             20.15732
1579.08163  811.84898   245.00000  27.86371             11.25399
1573.17143  170.27619   105.00000  12.82590             10.65010
1582.58140  1053.75581  344.00000  31.81224             13.92472
1581.46718  1202.88803  259.00000  25.69382             12.94762
1581.58621  290.57471   174.00000  16.23536             13.71040
1585.14030  426.85373   335.00000  26.55935             16.11739
1586.07527  1146.26523  279.00000  20.08932             17.96589
1585.46667  1623.34762  210.00000  19.09107             14.09691
1585.93827  138.53086   162.00000  16.16519             12.87329
1588.57399  218.52915   223.00000  17.68920             16.07814
1591.14336  1310.77622  286.00000  23.32724             15.79580
1589.15789  1336.96491  171.00000  16.82250             12.97772
1592.18349  1663.68807  218.00000  17.51080             15.90255
1591.17647  199.50327   153.00000  15.79899             12.38006
1595.89041  553.89384   292.00000  22.29743             16.81935
1592.79048  1433.52381  210.00000  21.31844             12.58923
1594.07186  1682.09581  167.00000  18.18779             11.79028
1601.40559  1461.93706  286.00000  35.64169             10.65328
1601.10081  1161.28629  248.00000  21.29630             14.91351
1596.82540  1063.17460  63.00000   10.59390             7.61369
1605.11969  883.83012   259.00000  22.65261             14.74488
1603.32843  1085.75490  204.00000  21.05886             12.37463
1602.09091  1595.08081  198.00000  18.37126             13.72889
1603.10660  145.44670   197.00000  18.80821             13.34865
1610.62733  817.86957   322.00000  29.31675             15.20531
1609.63842  534.64972   177.00000  18.84558             11.98957
1615.84528  1271.23019  265.00000  25.88572             13.12598
1615.74286  608.44286   210.00000  18.30194             14.75015
1621.63844  327.43648   307.00000  27.40384             14.35362
1619.19487  1307.63077  195.00000  20.63680             12.27924
1623.07960  1198.10448  201.00000  20.89957             12.54908
1624.40444  1209.49333  225.00000  21.37568             13.80242
1618.53659  1148.92683  41.00000   8.01318              6.50508
1622.58333  1582.55000  180.00000  17.03007             13.67410
1623.44286  1835.64286  140.00000  18.74108             10.18369
1626.61576  1232.96059  203.00000  18.30924             14.37158
1626.92192  1533.29429  333.00000  32.65049             13.30784
1625.40000  1596.04138  145.00000  14.62619             12.78729
1629.27823  1132.00403  248.00000  20.35550             15.60899
1628.92000  270.57143   175.00000  15.87491             14.14164
1632.64162  1107.94220  173.00000  19.82227             11.13544
1629.99367  1246.29114  158.00000  15.87797             12.70509
1644.19098  1056.99204  377.00000  31.29189             15.93520
1644.79885  1040.37644  348.00000  33.08554             14.03920
1643.04386  887.71491   228.00000  19.06035             15.26617
1647.05357  521.46786   280.00000  21.50303             16.72339
1652.02609  583.43043   230.00000  25.89797             11.79196
1647.55556  1812.50667  225.00000  20.50859             14.00717
1650.53279  1328.88115  244.00000  19.39525             16.08912
1654.47904  1089.52096  167.00000  18.60077             11.81128
1663.31674  1158.00905  221.00000  23.56591             12.13799
1662.10601  1250.08834  283.00000  25.73929             15.01837
1665.18889  293.25926   270.00000  22.20597             15.50736
1663.86905  1235.48214  168.00000  18.62623             11.65469
1671.48826  1173.83099  213.00000  17.83920             15.34970
1670.26962  1344.45734  293.00000  25.97539             14.81000
1670.63924  97.74051    158.00000  14.93742             13.58116
1676.52096  250.86228   167.00000  15.37376             14.02335
1677.85427  1377.81910  199.00000  20.60879             12.37855
1680.54255  1090.49468  188.00000  21.38364             11.31690
1679.72973  1649.01802  111.00000  13.39332             10.61293
1687.37079  342.34831   178.00000  20.53179             12.16420
1686.09929  1102.53191  141.00000  14.16303             12.70284
1689.08434  242.61446   166.00000  17.33640             12.24619
1698.21053  1205.45995  437.00000  33.97902             16.71721
1692.90244  1181.64390  205.00000  18.77773             13.91073
1692.12941  1353.68235  170.00000  16.11880             13.51064
1693.74766  509.97196   214.00000  21.00346             13.02158
1694.95582  18.85141    249.00000  19.30840             16.50235
1695.91943  559.96209   211.00000  19.07192             14.14490
1703.96886  1283.79931  289.00000  26.82834             13.84525
1706.21000  1113.21500  200.00000  20.17507             12.72797
1705.17073  1314.04390  205.00000  17.52400             14.90662
1715.85874  1179.79554  269.00000  21.48441             16.08172
1714.44186  373.42326   215.00000  18.00362             15.34474
1722.31395  1045.63663  344.00000  25.21504             17.64509
1730.24111  1382.25692  253.00000  22.47136             14.38462
1736.06699  259.50718   209.00000  19.63024             13.88321
1737.64469  1221.31502  273.00000  21.42964             16.26491
1743.18343  561.27219   169.00000  17.94716             12.13965
1755.26936  1176.41751  297.00000  20.45271             18.75267
1756.48921  1290.09353  278.00000  24.69399             14.56097
1754.63441  542.07527   186.00000  18.02175             13.21608
1761.43262  1115.81915  282.00000  27.05833             13.39587
1761.71131  1229.21429  336.00000  24.09328             18.36321
1764.70696  219.57143   273.00000  21.89033             16.25311
1767.89604  1392.31188  202.00000  23.97865             11.03406
1771.64179  333.30846   201.00000  19.21048             13.43934
1773.14706  1411.12868  272.00000  22.16445             15.79490
1771.84466  169.40777   206.00000  19.89033             13.28143
1773.84000  350.04000   100.00000  14.05688             9.45140
1781.94909  1291.42182  275.00000  22.58237             15.61977
1781.64072  1136.64072  167.00000  16.84006             12.65267
1790.13084  1422.70561  214.00000  26.07964             10.61057
1791.39048  544.47619   210.00000  24.18050             11.16533
1792.90837  1194.05179  251.00000  20.36253             15.76859
1796.34706  65.76471    170.00000  16.13788             13.48474
1814.18699  1236.84146  246.00000  21.40787             14.75634
1829.65607  1192.38150  346.00000  25.88108             17.69181
1845.93274  1437.70404  223.00000  21.48741             13.24049
1850.05096  1253.26752  314.00000  23.29090             17.68921
1866.20290  68.94203    138.00000  15.96620             11.18578
1890.66667  1446.71895  153.00000  17.57390             11.68481
1938.15591  1470.01613  186.00000  19.34379             12.31682