# Filename: Nuclei_416_bidi_012.npz
# Voxel size (nm): (108, 108)
# Area quantity: voxels
# Num nuclei detected: 376
Y           X           AREA       MAJOR_AXIS_LENGTH    MINOR_AXIS_LENGTH
279.60952   745.58095   105.00000  14.61130             9.25017
294.90230   739.36782   174.00000  18.85890             11.87683
303.55195   1074.45455  154.00000  15.18809             12.97346
349.72189   713.53254   169.00000  17.35597             12.40828
393.78481   1016.67089  158.00000  16.84998             12.01620
410.23478   680.83478   115.00000  13.51546             10.84659
430.88272   1006.64198  162.00000  19.39383             10.73950
443.65550   977.17225   209.00000  19.78025             13.45325
473.69421   950.10744   121.00000  14.45014             10.72690
478.37795   608.57480   254.00000  19.34849             16.93111
492.19474   548.23684   190.00000  17.25801             14.08336
491.35669   577.34395   157.00000  16.81069             11.92950
496.24336   945.05310   226.00000  24.74441             11.91248
495.72430   469.14019   214.00000  21.59238             12.69245
504.53952   647.57732   291.00000  21.36396             17.58504
529.06667   900.44000   225.00000  18.23880             15.79310
537.20851   435.35745   235.00000  23.29090             13.31334
534.89510   640.66434   143.00000  16.17818             11.33382
557.03000   415.06000   200.00000  19.28940             13.31492
555.24419   401.34884   86.00000   11.45455             9.66577
560.33333   885.02985   201.00000  22.69852             11.47439
569.20101   396.54271   199.00000  18.79186             13.56093
572.40323   622.29570   186.00000  19.11909             12.97176
579.20000   847.69615   260.00000  19.28475             17.34215
599.65625   606.17708   192.00000  16.27052             15.06800
607.55157   497.64574   223.00000  18.32517             16.03984
621.22568   835.05058   257.00000  21.82001             15.19716
623.53086   468.39506   162.00000  15.86177             13.15305
622.50588   326.61176   85.00000   10.72149             10.10777
636.79394   455.47879   165.00000  18.29253             11.69070
649.91701   303.82988   241.00000  22.29325             13.83355
666.70508   800.48814   295.00000  22.30973             16.88768
675.09963   616.87454   271.00000  21.50670             16.15388
680.00000   273.27632   228.00000  18.62237             15.64473
696.98578   427.62085   211.00000  17.35802             15.47288
708.43220   574.98729   236.00000  21.02417             14.37310
710.40769   240.58462   130.00000  15.76193             10.63174
715.51408   780.38028   284.00000  27.32128             13.37298
712.17045   761.65909   264.00000  24.35080             14.48674
712.00000   540.64286   56.00000   10.22601             6.94587
720.44865   205.81081   185.00000  17.79219             13.34091
722.60784   719.48235   255.00000  20.00531             16.54384
727.51220   518.74797   123.00000  13.78433             11.63809
738.63755   427.44978   229.00000  20.43460             14.47076
741.18919   750.37838   37.00000   7.76361              6.06258
745.70335   546.00000   209.00000  18.36541             14.82731
753.06952   743.75401   187.00000  18.15768             13.20314
751.98450   270.03876   129.00000  13.23599             12.44296
752.80952   315.26455   189.00000  18.73331             12.92870
753.34395   562.57325   157.00000  15.63822             12.88122
756.48594   492.52209   249.00000  19.27852             16.53007
764.72428   293.79012   243.00000  23.15982             13.41356
762.95337   462.02073   193.00000  18.15471             13.64775
766.58590   591.74009   227.00000  22.02649             13.29421
765.24444   775.62222   45.00000   8.55706              6.71842
774.91053   1406.52632  190.00000  16.16770             15.06418
777.60870   625.45963   161.00000  15.79373             13.58964
778.10196   672.99608   255.00000  19.72346             16.64281
778.16981   1436.44340  106.00000  12.04933             11.53334
785.35211   1458.91549  213.00000  23.92086             11.81884
786.64789   744.70892   213.00000  17.57953             15.49060
789.69113   1389.79817  327.00000  22.77280             18.50641
789.54500   491.09500   200.00000  18.70289             14.06361
792.14964   696.99635   274.00000  22.56357             15.75593
791.04301   1335.57527  186.00000  17.08168             13.95882
791.16379   591.41379   116.00000  13.65455             10.98141
789.86567   759.43284   67.00000   12.29563             6.93099
796.05991   539.46544   217.00000  17.82395             15.67762
797.66135   614.73705   251.00000  20.00821             16.23082
801.17308   463.65385   104.00000  13.43103             11.48827
798.52607   1359.56398  211.00000  17.13510             15.84400
808.32301   369.35841   226.00000  19.07990             15.21361
809.32402   476.66480   179.00000  16.93833             13.56738
813.77459   669.25000   244.00000  18.98364             16.44579
812.09868   1350.94079  152.00000  15.90099             12.17414
819.89764   528.82283   254.00000  20.40508             15.95374
824.41200   451.12400   250.00000  26.05170             12.35520
828.96901   632.07887   355.00000  30.79910             15.64065
823.35246   591.05328   244.00000  19.74983             15.91297
825.56164   726.77740   292.00000  24.42024             15.35528
823.91935   557.41129   124.00000  15.21008             10.64550
829.47083   1355.19583  240.00000  20.43854             15.06339
838.92453   689.05189   212.00000  18.87709             14.40560
839.11765   740.70136   221.00000  19.41980             14.72313
841.06667   657.45000   240.00000  21.61325             14.43917
844.39928   376.09353   278.00000  25.02830             14.34673
850.92835   529.66667   321.00000  24.15956             17.12627
850.88811   680.94406   143.00000  16.68779             11.02737
858.89496   1445.30672  238.00000  23.28012             13.23420
857.04286   411.90000   140.00000  15.90621             11.27590
858.00568   624.13068   176.00000  20.56304             10.95348
858.19149   792.09043   188.00000  16.31144             14.69210
859.43646   734.42541   181.00000  17.72122             13.25039
862.54789   809.67050   261.00000  20.36897             16.67235
865.21801   750.00000   211.00000  19.73818             13.70282
870.25731   445.43860   171.00000  15.93583             13.89244
890.53736   826.51149   348.00000  26.04871             17.40040
893.73514   543.70270   185.00000  18.78496             12.57558
897.37102   511.65371   283.00000  21.64951             16.73565
901.09790   599.57692   286.00000  22.86103             16.16889
904.87379   1390.41748  309.00000  21.52465             18.38466
914.66482   820.18560   361.00000  26.80263             17.33558
923.01435   645.94737   209.00000  19.05403             14.09458
926.60494   585.62551   243.00000  20.51204             15.12189
926.50307   516.26380   163.00000  16.41211             12.81995
929.14530   401.29487   234.00000  19.03437             15.84750
937.68636   753.32727   220.00000  19.93597             14.11371
947.67148   409.30686   277.00000  20.53158             17.72638
946.63265   475.05612   196.00000  20.45782             12.53578
944.59341   532.50549   91.00000   11.45899             10.18412
951.38690   652.02381   168.00000  16.52223             13.03995
959.01656   806.36424   302.00000  23.73929             16.48241
970.52878   581.94964   278.00000  25.86368             13.94730
969.46409   498.14365   181.00000  17.10957             13.56527
970.68687   468.95960   99.00000   13.95413             9.25783
979.54032   508.26613   248.00000  24.93428             12.79969
985.51174   548.55869   213.00000  17.71613             15.39577
1003.03415  631.55366   410.00000  24.23091             21.77083
1006.86348  579.21502   293.00000  21.65644             17.41430
1014.76027  786.32877   292.00000  21.72318             17.18481
1038.17730  602.39007   282.00000  20.33597             17.94140
1052.87879  762.01347   297.00000  27.96823             14.00641
1071.68635  582.19557   271.00000  19.84619             17.42676
1081.28369  757.01418   141.00000  15.19315             11.86409
1081.18644  724.27119   59.00000   10.54011             7.19606
1101.05914  537.84946   186.00000  17.00102             13.96803
1109.75694  729.39583   144.00000  16.31037             11.28754
1133.17603  690.15356   267.00000  22.74278             15.54423
1154.50763  566.81679   262.00000  23.30863             14.60792
1156.05747  668.08046   261.00000  20.42335             16.48924
1165.36559  855.40860   186.00000  21.42423             11.10745
1163.30612  392.83673   49.00000   8.19693              7.65232
1168.57576  833.57576   33.00000   6.68318              6.22799
1176.93590  776.98718   78.00000   10.81848             9.16066
1181.16522  392.91739   230.00000  20.58737             14.62923
1176.17241  809.89655   29.00000   7.10354              5.11217
1181.08333  852.05556   36.00000   7.30582              6.27323
1185.12963  733.74074   54.00000   9.71467              7.09613
1186.90909  721.00000   44.00000   7.91723              7.06488
1187.98571  704.10000   70.00000   9.71977              9.17091
1187.65306  712.65306   49.00000   8.26105              7.52040
1188.17647  744.76471   51.00000   8.53792              7.68461
1188.82143  800.30357   56.00000   9.15550              7.75836
1190.36000  692.66000   50.00000   8.28709              7.67600
1191.50000  783.40476   42.00000   8.68786              6.12526
1194.74000  742.34000   50.00000   8.11989              7.85469
1195.18750  765.00000   32.00000   8.88984              4.62690
1196.06061  726.57576   33.00000   7.22277              5.75635
1209.83962  596.92767   318.00000  25.63352             16.72380
1201.50000  842.79167   48.00000   8.32666              7.30107
1205.58228  806.30380   79.00000   10.53684             9.56511
1206.73529  660.00000   34.00000   7.06274              6.08248
1208.41379  779.86207   29.00000   6.34106              5.82995
1210.81967  699.22951   61.00000   9.57736              8.16387
1210.63333  646.63333   30.00000   6.49102              5.79348
1214.63158  823.59649   57.00000   9.76546              7.47858
1217.00000  762.39474   38.00000   7.57032              6.38974
1217.50000  560.00000   28.00000   6.70777              5.25141
1225.25556  367.77037   270.00000  22.08214             15.76969
1220.54286  571.68571   35.00000   6.80156              6.59116
1221.73529  543.00000   34.00000   7.06274              6.08248
1222.60417  550.22917   48.00000   8.91259              6.91991
1223.13333  584.76667   30.00000   6.93711              5.59056
1223.76923  831.64103   39.00000   7.87377              6.30121
1224.87179  704.74359   39.00000   8.27030              5.97688
1228.43243  642.62162   37.00000   7.73759              6.07463
1229.42593  815.88889   54.00000   9.42660              7.35617
1232.20408  514.80612   98.00000   14.84158             8.59108
1231.37500  656.58929   56.00000   9.03632              7.87194
1232.14286  572.64286   56.00000   10.30740             7.00746
1235.11200  496.73600   125.00000  14.16084             11.33679
1233.95556  552.31111   45.00000   8.39152              6.78576
1235.53125  531.34375   32.00000   6.77200              5.97777
1237.72917  537.18750   48.00000   8.56549              7.13416
1236.90000  706.03333   30.00000   7.11539              5.30347
1238.02326  598.97674   43.00000   7.69061              7.08749
1237.50000  688.50000   32.00000   6.32456              6.32456
1239.04444  681.80000   45.00000   8.20917              6.99397
1243.14000  485.30000   100.00000  13.40575             9.56517
1239.80000  562.50000   30.00000   6.64113              5.73196
1241.06780  584.20339   59.00000   8.97640              8.39959
1244.01695  466.63559   118.00000  14.61535             10.28367
1243.11290  555.40323   62.00000   9.44410              8.30878
1246.21429  633.37500   56.00000   9.40912              7.57238
1246.06667  661.62222   45.00000   9.18348              6.20200
1246.82222  744.15556   45.00000   8.06118              7.09868
1248.84091  536.63636   44.00000   7.89428              7.10158
1249.00000  652.00000   39.00000   7.41447              6.65640
1248.09091  696.90909   22.00000   5.50282              4.97265
1250.33962  572.09434   53.00000   8.83540              7.64943
1249.33333  643.61111   18.00000   4.85341              4.78681
1253.34118  715.68235   85.00000   13.80825             7.86482
1250.08000  435.20000   25.00000   5.98240              5.30174
1251.73770  592.59016   61.00000   8.96647              8.69206
1252.95652  617.31884   69.00000   10.30729             8.52881
1252.45161  445.41935   31.00000   6.42575              6.06314
1252.96296  551.33333   27.00000   6.28263              5.57002
1254.90244  603.73171   41.00000   7.56261              6.87452
1254.00000  703.82609   23.00000   5.40531              5.36036
1256.46000  676.40000   50.00000   7.96994              7.95829
1258.80769  566.01923   52.00000   8.88058              7.45752
1260.71667  576.48333   60.00000   9.61805              7.97104
1260.31707  635.46341   41.00000   8.26646              6.30807
1262.84906  725.18868   53.00000   12.15173             5.65062
1261.70000  660.70000   30.00000   6.64269              5.74410
1262.67925  688.69811   53.00000   9.14951              7.35957
1263.80556  596.20833   72.00000   10.19761             8.98383
1263.86111  644.98611   72.00000   10.03854             9.16663
1265.89362  580.70213   47.00000   8.67484              6.98308
1264.50000  704.50000   32.00000   6.32456              6.32456
1265.16667  675.83333   18.00000   5.03866              4.66080
1268.44681  630.44681   47.00000   8.35388              7.15147
1274.52465  376.48944   284.00000  20.46352             18.09347
1270.82000  727.36000   50.00000   9.02614              7.07226
1273.19565  624.89130   46.00000   8.20998              7.17265
1272.65385  741.00000   26.00000   6.49246              5.04670
1275.52381  591.30952   42.00000   9.02112              5.97864
1276.70833  670.87500   48.00000   9.16927              6.65682
1277.71429  684.28571   42.00000   8.50814              6.26777
1279.34667  647.94667   75.00000   10.16698             9.35508
1278.78261  488.95652   23.00000   6.12612              4.78557
1279.52830  775.66038   53.00000   8.44848              7.97465
1279.72414  464.65517   29.00000   6.53899              5.60026
1284.51613  725.72581   62.00000   11.68606             6.75157
1283.09677  483.51613   31.00000   6.77259              5.81799
1282.38636  514.02273   44.00000   9.29093              5.97038
1286.20202  662.14141   99.00000   14.04442             9.02093
1287.13462  527.15385   52.00000   8.43993              7.90952
1285.29630  673.77778   27.00000   6.09077              5.64082
1289.17073  574.87805   41.00000   8.18699              6.44493
1288.90909  695.84848   33.00000   7.41431              5.63926
1288.96296  706.33333   27.00000   6.84488              5.10045
1290.85714  586.51786   56.00000   8.57583              8.30546
1302.37795  405.03412   381.00000  30.51705             16.19796
1290.40741  515.07407   27.00000   6.42150              5.26541
1293.13208  734.90566   53.00000   9.23639              7.24787
1292.89655  635.51724   29.00000   6.70688              5.47853
1293.15625  741.81250   32.00000   6.86031              6.04012
1294.57143  500.94286   35.00000   7.10757              6.26828
1296.04938  642.56790   81.00000   11.61312             8.92135
1296.83824  699.88235   68.00000   11.74923             7.47688
1298.06522  571.00000   92.00000   16.16143             7.41040
1300.12234  1725.78723  188.00000  16.63630             14.43893
1299.47826  679.87826   115.00000  16.94691             8.86425
1298.77586  717.10345   58.00000   10.17280             7.28398
1298.70000  539.43333   30.00000   6.60810              5.83283
1301.65116  755.67442   43.00000   8.30820              6.56138
1302.04878  635.36585   41.00000   7.55920              6.92791
1302.58824  793.58824   34.00000   7.68948              5.69100
1304.72414  625.58621   29.00000   6.27895              5.81884
1308.71429  602.07143   70.00000   9.93988              8.97836
1309.55000  698.77500   40.00000   7.73662              6.61020
1309.45161  539.41935   31.00000   6.42575              6.06314
1311.93220  560.94915   59.00000   8.91951              8.48060
1311.27273  745.00000   44.00000   8.30103              6.74827
1313.83333  726.84615   78.00000   11.11381             8.95393
1314.22222  473.67901   81.00000   11.14964             9.26229
1311.78261  623.60870   23.00000   6.01393              4.82029
1316.43103  777.62069   58.00000   10.11200             7.41320
1316.12195  786.02439   41.00000   7.57170              6.85618
1318.81013  676.20253   79.00000   10.53729             9.59618
1316.75000  580.25000   20.00000   5.13809              4.93964
1318.25000  549.25000   28.00000   6.54654              5.42481
1318.40741  650.07407   27.00000   6.42150              5.26541
1319.15789  745.55263   38.00000   7.78849              6.16881
1320.31707  519.41463   41.00000   8.09011              6.46534
1319.00000  625.50000   26.00000   6.20174              5.20355
1319.70968  657.70968   31.00000   6.38547              6.17066
1321.88372  685.88372   43.00000   7.69174              7.05690
1324.58491  551.32075   53.00000   8.61537              7.78088
1324.34615  601.05769   52.00000   8.62372              7.70411
1330.11801  1735.35404  161.00000  15.90311             12.95451
1326.54839  764.41935   31.00000   6.42575              6.06314
1327.24000  680.96000   25.00000   6.40249              4.89704
1330.53521  715.60563   71.00000   11.60706             7.81162
1329.36111  776.16667   72.00000   12.26644             7.53534
1331.43902  575.36585   41.00000   8.21003              6.33644
1332.29032  704.45161   31.00000   6.85750              5.70016
1333.42857  763.95918   49.00000   8.62667              7.18295
1343.47078  426.34740   308.00000  28.36164             14.03927
1335.68085  723.25532   47.00000   8.44368              7.09132
1337.09091  688.45455   33.00000   7.11980              5.84062
1338.42857  655.25000   28.00000   7.00168              5.14454
1341.11538  613.00000   26.00000   6.00788              5.54700
1344.56000  721.20000   25.00000   6.45922              4.86425
1347.51515  761.68182   66.00000   10.22093             8.20754
1347.15217  506.82609   46.00000   8.41757              6.99898
1350.42373  620.94915   59.00000   10.55682             7.10780
1350.88889  751.29630   54.00000   9.18073              7.46603
1354.39535  533.81395   43.00000   8.16732              6.72436
1356.77143  707.42857   35.00000   7.07588              6.24158
1358.57143  550.93878   49.00000   8.88486              6.97659
1360.75269  756.53763   93.00000   11.62421             10.18565
1360.25000  514.60938   64.00000   10.60106             7.83749
1360.60000  668.17778   45.00000   8.28166              6.86323
1360.05556  730.19444   36.00000   7.18931              6.36776
1366.72881  739.47458   59.00000   9.45826              7.90612
1368.86486  752.91892   37.00000   8.11104              5.76829
1369.29167  616.58333   24.00000   6.58452              4.60129
1369.39130  627.78261   23.00000   6.01393              4.82029
1372.53659  692.17073   41.00000   8.55655              6.13308
1380.52066  741.85124   121.00000  16.11652             9.60179
1380.25170  1708.55782  147.00000  16.02764             11.80251
1382.96907  719.14433   97.00000   12.01690             10.52381
1387.00000  570.50000   24.00000   5.91062              5.13789
1391.23656  731.97849   93.00000   11.86471             9.99371
1395.37241  475.16552   145.00000  14.54168             12.69073
1396.50704  1336.58216  213.00000  21.53079             12.68383
1392.44444  555.40741   27.00000   6.43581              5.29372
1393.53846  687.05128   39.00000   7.30693              6.82225
1394.96774  722.16129   62.00000   10.15106             8.20743
1402.51429  1429.02857  140.00000  17.00419             10.78019
1397.02439  693.12195   41.00000   7.57170              6.85618
1402.50980  710.52941   51.00000   8.44248              7.68519
1407.84444  719.44444   45.00000   8.47443              6.72084
1417.23734  1495.12658  316.00000  25.55998             16.71384
1411.95000  668.17500   40.00000   7.30107              6.94005
1414.85714  707.85714   42.00000   10.84443             5.43643
1414.64103  690.92308   39.00000   7.57080              6.59552
1419.00000  605.36111   36.00000   7.42369              6.12120
1423.13253  710.66265   83.00000   10.95270             9.65721
1423.16129  701.87097   31.00000   7.47390              5.25236
1429.71963  694.78505   107.00000  12.03910             11.38196
1428.46753  1427.68831  77.00000   12.60960             7.87553
1434.64972  1457.78531  177.00000  16.02368             14.12690
1436.85714  660.88889   63.00000   9.92958              8.12150
1441.02151  1717.68817  93.00000   11.98604             9.87544
1446.64360  1378.31834  289.00000  24.16251             15.32418
1447.29630  678.34259   108.00000  14.73663             10.13214
1445.50000  646.25581   86.00000   12.46478             8.95212
1449.08108  1525.42793  222.00000  17.78532             16.03145
1455.47101  505.02899   276.00000  24.77066             14.24868
1447.91176  653.20588   34.00000   6.79065              6.37289
1455.95633  1542.93450  229.00000  24.58048             11.90933
1452.68333  695.60000   60.00000   9.35837              8.24560
1458.99303  1337.78746  287.00000  22.50789             16.41753
1457.33166  1485.95477  199.00000  21.31402             12.07183
1455.18182  670.20000   55.00000   9.65212              7.37036
1466.58904  667.69863   73.00000   11.24133             8.35499
1466.33929  680.16071   56.00000   9.01898              7.91762
1472.72835  1417.12992  254.00000  20.48739             15.87293
1475.35135  667.75676   74.00000   11.35762             8.34243
1476.63158  678.66667   57.00000   8.93709              8.12856
1478.73276  1517.97414  116.00000  15.88325             9.31166
1489.79464  1461.22321  112.00000  13.29884             10.75495
1494.31579  1394.15789  152.00000  17.05792             11.99480
1502.98198  1563.85586  222.00000  19.97139             14.48500
1503.84615  1706.14835  182.00000  17.41323             13.68259
1510.10000  1410.07143  70.00000   10.06209             8.86719
1517.18590  1688.26923  156.00000  15.46652             12.86606
1526.61421  1412.62944  197.00000  18.63578             13.52596
1538.43605  1697.18023  172.00000  15.71208             14.04929
1541.92708  1632.65625  96.00000   11.51366             10.76072
1558.99010  1512.24752  101.00000  12.64448             10.24485
1566.92035  1466.34956  226.00000  21.16720             13.76218
1563.52101  1597.82353  119.00000  14.39942             10.64556
1567.65306  1538.72449  98.00000   12.24397             10.20233
1573.60000  1402.24242  165.00000  23.66715             9.21406
1574.64375  1617.14375  160.00000  16.78568             12.16880
1577.42857  1505.11429  175.00000  17.19335             13.06624
1583.66480  1649.27933  179.00000  16.19601             14.19834
1590.33846  1587.40000  65.00000   10.57000             7.81748
1599.00000  1720.31373  153.00000  15.75779             12.44280
1634.18563  1493.99401  167.00000  22.90400             9.57441
1627.26531  1562.65306  49.00000   9.50858              6.65814
1628.87209  1616.53488  86.00000   11.04497             9.96071
1648.10606  502.00000   132.00000  13.58585             12.65758
1668.18462  1569.15897  195.00000  17.08284             14.69785
1670.57895  1430.57895  38.00000   7.52318              6.49228
1689.91667  237.43590   156.00000  16.26577             12.31496
1696.28788  1794.01515  66.00000   9.99034              8.48259
1738.68254  1564.47619  126.00000  16.03925             10.13451
1741.05348  1508.74332  187.00000  16.03099             14.93671
1741.41176  812.32353   34.00000   6.90018              6.23085
1746.10526  1619.22368  76.00000   10.48577             9.26892
1767.16964  421.33036   224.00000  22.00769             13.15395