# Filename: Nuclei_bidi_pfa_005.npz
# Voxel size (nm): (108, 108)
# Area quantity: voxels
# Num nuclei detected: 834
Y           X           AREA       MAJOR_AXIS_LENGTH    MINOR_AXIS_LENGTH
5.88489     765.31655   139.00000  14.90482             12.01568
12.49466    1069.01779  281.00000  21.10425             17.29789
21.30196    686.27059   255.00000  22.03612             14.96448
42.12766    615.14362   188.00000  18.66042             12.91074
49.52604    636.09896   192.00000  17.50988             14.18873
56.18431    1095.36078  255.00000  19.66647             16.69659
73.52074    656.29954   217.00000  19.88599             14.11045
70.34483    527.14943   87.00000   12.10537             9.70272
80.24186    359.06047   215.00000  18.65591             14.80869
82.58962    426.36792   212.00000  22.63303             12.07910
91.77931    1111.37241  145.00000  15.40045             12.00202
97.37008    593.99213   254.00000  19.67210             16.53002
96.69636    1014.95547  247.00000  18.49912             17.09181
98.47917    638.76042   96.00000   11.93533             10.30158
106.29181   1095.73310  281.00000  24.77194             14.72470
106.38095   339.81429   210.00000  18.18797             14.95008
112.63235   862.36765   204.00000  18.67079             13.95855
117.57789   636.06533   199.00000  21.62050             11.90527
122.46988   392.22892   83.00000   12.50518             8.64961
130.58642   1103.73457  162.00000  16.65722             12.44272
131.88344   1012.19632  163.00000  19.24180             11.88333
134.54378   611.52074   217.00000  17.39643             15.94806
138.06786   886.29643   280.00000  22.68495             15.78152
137.67593   629.03704   216.00000  18.77040             14.66311
141.07143   367.77922   308.00000  24.65574             16.03443
140.92891   333.12322   211.00000  19.79839             13.82229
139.98701   453.61039   77.00000   11.20786             9.03409
145.19780   591.65934   273.00000  21.71922             16.06550
150.49500   1098.04500  200.00000  17.11979             14.96395
156.31336   525.33641   217.00000  17.71351             15.70148
158.04721   493.91416   233.00000  17.94176             16.58790
161.83333   976.41667   300.00000  20.29407             18.85865
162.86411   356.82578   287.00000  22.67869             16.32991
162.25796   648.78344   314.00000  22.89240             17.79239
164.78037   465.49065   214.00000  21.00573             13.09224
170.70242   920.87197   289.00000  23.65953             15.67801
172.65179   943.85268   224.00000  19.97915             14.32443
171.53642   1000.00331  302.00000  25.54672             15.47758
175.56459   536.34450   209.00000  18.81305             14.15526
179.91931   580.98559   347.00000  24.38974             18.20999
179.30233   434.47287   129.00000  13.73138             11.94911
181.09137   411.20305   197.00000  17.60168             14.36178
187.44598   517.89751   361.00000  24.21710             19.24932
187.44670   613.20812   197.00000  17.25210             14.67766
193.12000   912.28500   200.00000  22.11511             12.00799
191.36596   994.91915   235.00000  20.46471             14.68374
191.77128   1101.66489  188.00000  16.97244             14.11896
200.00629   619.16352   159.00000  16.26850             12.57188
205.09962   655.25287   261.00000  21.82529             15.28352
206.48070   506.79298   285.00000  21.05790             17.27424
207.18142   1041.63717  226.00000  18.16395             15.90584
206.83486   1069.56422  218.00000  17.69731             15.80240
210.50183   593.84249   273.00000  20.10384             17.38075
211.33094   903.04317   139.00000  16.27826             10.88059
212.85714   349.68571   245.00000  19.89360             15.80451
215.47009   1000.42308  234.00000  18.96694             15.81979
220.31100   530.94737   209.00000  19.78088             13.70103
221.21341   475.67683   164.00000  16.96165             12.35453
221.87558   549.55300   217.00000  19.07326             14.58587
223.84615   515.43846   130.00000  13.82739             12.08919
227.46486   425.46486   185.00000  17.56101             13.48407
229.44397   1056.93534  232.00000  18.60189             16.08568
232.52439   394.03659   246.00000  21.30493             14.72415
233.42857   574.15510   245.00000  20.69082             15.16746
235.23887   464.88664   247.00000  19.69624             16.15488
235.60996   867.02905   241.00000  19.18776             16.14163
236.37282   961.73519   287.00000  23.49279             15.67097
236.24713   942.64943   174.00000  16.27416             13.68870
237.35075   1002.97015  134.00000  16.48396             10.51925
237.04575   1013.73856  153.00000  16.65799             11.92015
241.13492   541.42857   252.00000  19.42069             16.55928
241.40175   631.96070   229.00000  17.87298             16.39182
246.00000   565.10429   163.00000  16.07162             12.97786
250.45977   505.70115   261.00000  18.79232             17.75911
253.33186   376.80088   226.00000  17.91529             16.16426
260.03927   987.95166   331.00000  30.24050             14.55606
269.30195   954.22078   308.00000  29.88785             13.85678
268.84426   607.81148   244.00000  24.12728             12.96147
266.64767   520.25907   193.00000  16.26978             15.13209
277.98930   392.64706   187.00000  22.54449             10.98551
278.25862   431.33333   174.00000  18.50638             12.09728
289.29155   649.66213   367.00000  42.12126             12.77630
321.04348   621.77295   207.00000  16.91187             15.64995
329.27306   703.49446   271.00000  22.55135             15.43225
330.73358   380.72263   274.00000  24.73512             14.20794
328.91209   662.17949   273.00000  21.23298             16.59983
343.21304   419.81304   230.00000  20.51169             14.34369
338.91667   692.31818   132.00000  13.62837             12.37998
345.58564   46.78453    181.00000  16.90359             14.83667
346.33588   629.86260   262.00000  19.50821             17.31197
356.84979   717.56223   233.00000  19.49174             15.25833
359.64427   583.68775   253.00000  23.01813             14.04748
363.13527   110.89372   207.00000  18.19943             14.60256
382.88814   704.77288   295.00000  20.15843             18.85507
383.77253   590.39485   233.00000  20.76502             14.37086
386.66960   555.64317   227.00000  19.43567             14.92668
389.77228   1653.75743  202.00000  17.20131             14.96951
396.56184   1607.00707  283.00000  23.19624             15.77334
404.55462   1684.76050  238.00000  20.07994             15.16848
413.91406   1567.82812  256.00000  19.89166             16.42729
416.49160   1619.02941  238.00000  18.67523             16.29643
419.91195   60.76101    159.00000  15.97304             12.73732
440.18919   1692.94595  185.00000  16.63421             14.25794
446.84746   1680.23729  177.00000  15.54934             14.56317
456.14554   1543.70423  213.00000  18.23309             14.90420
463.41767   1528.08032  249.00000  20.45803             15.54279
467.81860   1552.26512  215.00000  20.13381             13.65801
472.68571   1688.44082  245.00000  18.33428             17.08554
486.39336   1236.22275  211.00000  17.78574             15.21098
493.03659   430.61382   246.00000  20.24747             15.70841
496.36863   925.08627   255.00000  21.71151             15.03915
496.15789   1246.77990  209.00000  18.75174             14.22855
497.80275   1678.21560  218.00000  17.93407             15.56087
499.84848   1661.32035  231.00000  19.56837             15.11300
502.85818   27.16364    275.00000  21.44465             16.81045
504.82273   1711.28182  220.00000  17.54265             16.00710
509.60221   877.28729   181.00000  17.54220             13.20719
511.81643   986.30918   207.00000  17.86214             14.84074
511.16154   1898.64615  130.00000  14.84338             11.19991
515.85854   968.74146   205.00000  17.50030             15.14350
523.37687   19.20149    268.00000  19.53711             17.48791
525.57812   1655.32031  256.00000  21.08900             15.49645
527.67054   1707.00000  258.00000  19.76171             16.66781
531.52893   881.67355   242.00000  20.17974             15.33382
540.68679   1212.84528  265.00000  20.37585             16.61338
552.45714   449.26122   245.00000  22.41432             14.01820
554.73720   1728.03413  293.00000  25.08639             14.92255
558.74468   1691.03830  235.00000  23.13967             12.98115
567.11511   1116.31295  278.00000  21.42182             16.58430
571.62132   1641.02206  272.00000  25.82554             13.61568
569.66541   1202.39474  266.00000  21.67403             15.64446
576.53774   1846.56604  106.00000  12.91078             10.51201
579.94737   1186.51754  228.00000  19.27604             15.11010
577.97093   1776.22093  172.00000  15.55540             14.12001
580.55102   1684.90816  196.00000  17.29103             14.51343
584.35249   459.31418   261.00000  20.81348             16.07496
585.01875   1818.13750  160.00000  15.21325             13.46658
587.92857   865.05495   182.00000  17.19463             13.58228
591.37500   1641.94565  184.00000  18.30015             12.95236
592.13675   1157.77350  234.00000  17.96108             16.72827
592.21612   1727.87179  273.00000  19.70150             17.71731
598.01835   836.14220   218.00000  20.00524             14.02400
598.06186   1684.98969  194.00000  17.11019             14.71528
599.27551   1711.98980  196.00000  16.62404             15.03657
600.55670   851.77835   194.00000  17.88001             13.91298
603.51538   1845.99231  130.00000  13.62617             12.21788
610.00333   1090.54667  300.00000  22.40447             17.14190
606.66225   1625.45033  151.00000  16.96117             11.42629
610.77733   1751.68016  247.00000  19.02143             16.89974
610.09524   1826.35119  168.00000  15.84542             13.66415
612.43813   1138.44147  299.00000  27.13549             14.16780
617.64167   1255.50833  240.00000  19.95247             15.39188
621.67021   1946.97872  94.00000   13.37569             10.01823
625.03448   477.96552   261.00000  18.97247             17.62899
622.96954   687.07107   197.00000  19.83544             12.93022
624.69643   1690.84821  224.00000  18.96117             15.06850
628.60793   1793.93392  227.00000  17.99286             16.24701
631.01145   1666.99618  262.00000  20.30746             16.50543
632.17293   1120.55639  133.00000  18.55671             9.40598
634.70253   734.10127   158.00000  15.50481             13.20321
636.06931   1238.06931  202.00000  18.04114             14.26438
638.12887   682.82474   194.00000  17.90405             14.13657
636.68862   853.44910   167.00000  16.13145             13.24497
634.72353   1187.41765  170.00000  16.00011             13.77916
636.01399   1556.10490  286.00000  24.74726             15.34984
638.77021   1173.30213  235.00000  18.60377             16.21933
637.69767   1130.23256  172.00000  16.87594             13.23633
641.50622   1587.47718  241.00000  22.58816             13.85905
641.54494   666.32584   178.00000  16.45612             13.87763
645.17910   1526.37313  268.00000  26.23809             13.07787
646.32941   1755.97647  255.00000  25.29222             14.26917
644.02326   717.39535   172.00000  16.26645             13.75061
649.94372   731.62771   231.00000  18.97205             15.62690
652.28840   631.55799   319.00000  21.78944             18.79135
651.80615   1209.89538  325.00000  22.08823             18.84671
651.41038   1135.87264  212.00000  18.15323             15.05827
654.30924   1248.07631  249.00000  20.71210             15.69707
651.75758   1656.56566  198.00000  19.65053             12.98479
654.49345   1189.59389  229.00000  18.08233             16.19251
658.22174   1071.01304  230.00000  18.18493             16.20941
659.96604   976.52830   265.00000  19.11484             17.70053
662.56150   1674.56684  187.00000  19.88569             12.04001
661.50183   916.01465   273.00000  22.01299             15.90482
662.97656   1794.52734  256.00000  18.38476             17.93683
666.34981   587.47529   263.00000  20.87798             16.13340
667.91538   870.34231   260.00000  20.36870             16.30631
664.12308   945.06154   65.00000   12.47691             6.84505
667.76923   1695.59919  247.00000  21.06230             15.26399
667.97309   1662.64574  223.00000  19.01250             15.22988
675.36716   493.35821   335.00000  28.15397             15.56241
675.48355   1567.49342  304.00000  28.56902             13.72344
669.76471   1636.01604  187.00000  16.36420             14.68045
670.94222   1595.05778  225.00000  19.00651             15.13308
681.26923   1062.62637  364.00000  29.28663             16.31554
677.06746   1776.27381  252.00000  18.78634             17.17393
677.09251   1728.85463  227.00000  20.79579             13.94177
679.68881   924.38462   286.00000  21.57468             17.00806
679.65108   1016.93525  278.00000  22.82637             15.59720
678.66436   1146.80623  289.00000  28.31915             13.46724
681.63556   1276.02667  225.00000  19.91034             14.43767
684.11712   973.06306   222.00000  20.95014             13.96577
680.65546   1521.43697  119.00000  13.88833             11.19162
686.18251   420.17110   263.00000  22.15313             15.34328
685.63689   1193.10663  347.00000  27.47361             16.43163
684.75093   1125.47212  269.00000  21.89271             15.69083
687.94737   1536.35088  228.00000  21.49859             13.87437
687.72603   553.27397   146.00000  14.80880             12.74820
689.22152   1596.74051  158.00000  16.34434             12.51885
690.51460   883.24453   274.00000  20.33151             17.33835
693.39394   1523.76768  198.00000  21.12613             12.09878
692.79747   1667.16456  158.00000  17.40192             11.60893
692.17213   960.75410   122.00000  13.71673             11.50552
698.84322   431.50000   236.00000  19.92545             15.29396
699.32993   1297.70068  294.00000  23.18294             16.20118
702.53356   1721.26174  298.00000  25.46347             15.39374
699.79227   1642.41546  207.00000  21.05899             12.52261
704.52174   465.67559   299.00000  26.98686             14.90252
699.14815   922.12963   270.00000  23.08024             15.21650
698.84737   1901.82105  190.00000  19.02891             12.77022
701.27907   1610.99070  215.00000  17.87284             15.33692
704.04255   555.92553   188.00000  16.73547             14.69035
702.04795   1104.12329  146.00000  15.38099             12.13486
704.57225   503.72254   173.00000  17.80732             12.48121
706.59402   699.59402   234.00000  20.72265             15.09961
704.59804   906.06863   204.00000  17.88039             14.63222
707.08333   1157.55864  324.00000  25.18510             16.48686
709.56150   1756.05348  187.00000  17.72956             13.74384
710.94853   750.86029   272.00000  23.09090             15.29273
714.45455   867.24364   275.00000  26.37563             13.34730
712.84375   652.64286   224.00000  18.14106             15.88257
713.34109   709.28682   129.00000  16.59842             10.25626
715.78667   1709.80444  225.00000  21.03144             13.70938
713.99342   1624.11184  152.00000  16.47722             11.71978
713.53271   1645.53271  107.00000  12.32336             11.16518
716.11064   1111.22979  235.00000  18.08480             16.64860
724.97305   1270.70958  334.00000  33.80680             12.76514
715.72109   911.10204   147.00000  18.35941             10.49637
716.93162   1817.07692  117.00000  14.67165             10.61328
720.45098   1244.06373  204.00000  20.14360             12.99527
726.30314   1046.98606  287.00000  28.77250             13.30823
722.15882   1183.64706  170.00000  17.73797             12.44104
721.90643   737.08772   171.00000  15.85100             13.79858
721.38889   1148.83333  90.00000   15.25883             7.61530
727.35233   1657.95337  193.00000  18.04906             13.66070
728.07328   1196.06466  232.00000  19.12790             15.48876
727.41989   1214.73481  181.00000  16.51041             14.13321
729.28415   664.65574   183.00000  18.08123             12.99437
729.54930   1138.92254  142.00000  14.78193             12.25120
732.13208   1671.03302  212.00000  20.25521             13.42189
732.26437   1601.42529  174.00000  20.17789             11.84048
732.13661   1777.12022  183.00000  21.49293             10.92622
731.17450   1618.77181  149.00000  14.69385             12.96376
740.47687   628.87544   281.00000  26.58029             13.58380
736.09821   913.57143   112.00000  13.78573             10.41307
742.22791   1810.04651  215.00000  18.98475             14.53839
744.55849   482.10566   265.00000  20.48827             16.54899
743.27273   1253.01212  165.00000  16.27029             12.90244
744.44330   956.11340   194.00000  17.12023             14.55744
746.26718   532.22137   131.00000  15.71345             10.88809
748.04959   759.92562   121.00000  19.49880             8.13721
751.51515   768.52525   198.00000  22.61371             11.40796
742.87805   1055.26829  41.00000   7.91153              6.67127
753.28163   623.40000   245.00000  22.93365             14.46227
751.61856   444.98969   291.00000  19.86756             18.85908
750.78761   672.64159   226.00000  17.46744             16.66340
747.35714   1142.59524  42.00000   8.40587              6.30292
755.54545   724.34848   264.00000  20.46501             16.43890
758.50588   1195.91176  170.00000  16.42880             13.23249
756.76000   1947.48000  75.00000   10.39807             9.34767
759.64000   1522.36000  200.00000  17.98216             14.38383
762.70370   1687.45926  135.00000  13.95765             12.47891
769.16154   1508.13077  260.00000  20.93882             15.95034
768.25070   1656.51532  359.00000  28.09622             16.42744
767.75325   519.91558   154.00000  15.49115             12.84780
766.19565   1210.13043  46.00000   7.89946              7.43791
775.14760   574.68266   271.00000  22.80137             15.40395
775.21942   959.70144   278.00000  23.82913             15.26331
775.29572   1235.77821  257.00000  25.63623             13.35151
775.34496   825.01163   258.00000  20.34468             16.77767
774.07583   630.98578   211.00000  17.30974             15.68508
781.39623   899.80863   371.00000  22.51148             21.30969
779.92547   536.47205   161.00000  16.45570             12.50056
780.99487   1740.94872  195.00000  20.02690             12.42119
785.17460   1048.17460  252.00000  22.21903             15.01131
783.58952   1701.22271  229.00000  19.85702             14.74943
787.86986   857.42808   292.00000  22.88684             16.48089
787.67956   915.47514   181.00000  20.41042             11.36800
787.11719   1916.08594  128.00000  16.73669             10.21250
793.14894   475.25957   235.00000  20.74544             14.57913
790.61878   664.95580   181.00000  17.41311             13.31707
793.02326   565.75349   215.00000  18.85075             14.56289
789.67708   1832.17708  96.00000   11.39878             10.87341
791.30496   1761.94326  141.00000  16.94441             10.75452
794.81503   924.77457   173.00000  15.94152             14.03047
802.27451   1590.89412  255.00000  26.74316             12.75403
802.55455   890.20455   220.00000  22.11927             12.90746
803.97603   679.08219   292.00000  23.65766             15.80811
803.78125   1443.04018  224.00000  21.50727             13.41386
803.58696   1644.03261  184.00000  18.77788             12.57122
804.76623   584.00000   231.00000  20.30411             14.66608
808.76364   624.82182   275.00000  23.29543             15.14947
804.33577   1796.43796  137.00000  14.79874             11.93201
809.92515   799.41018   334.00000  25.60251             17.01935
809.62681   1458.05435  276.00000  21.72619             16.36587
809.15414   734.30075   266.00000  21.70056             16.02567
810.28421   826.97368   190.00000  18.01528             13.52265
812.88208   509.67453   212.00000  19.97956             13.80572
813.74419   1403.07442  215.00000  18.96679             14.46020
812.82301   1091.56637  113.00000  13.80320             10.70014
816.43216   1734.40704  199.00000  18.09705             14.06243
816.22843   1909.64467  197.00000  17.98640             14.02716
820.41743   1609.15596  218.00000  23.29763             12.06203
816.27976   1819.30952  168.00000  14.80750             14.56514
818.31469   847.98601   143.00000  15.93686             11.65871
818.33918   934.97076   171.00000  17.22752             12.96064
819.01163   1774.70349  172.00000  17.16604             12.90437
817.60656   1793.82787  122.00000  12.69027             12.29446
822.31980   1848.91371  197.00000  17.80611             14.11948
827.52747   242.93407   273.00000  21.56000             16.21401
825.13514   780.10811   148.00000  15.08446             12.50649
831.30268   837.56705   261.00000  24.03712             14.54301
826.32039   1357.52427  206.00000  17.41477             15.12042
829.97845   438.34483   232.00000  19.94226             14.91296
827.30693   501.59406   202.00000  17.27037             15.00384
827.41967   642.42295   305.00000  26.77557             14.71605
838.18466   1047.05966  352.00000  35.24572             14.06641
829.68647   1644.57426  303.00000  24.37725             15.90015
832.50360   736.08273   278.00000  24.85972             14.65330
829.65385   868.27885   208.00000  18.09678             14.78432
831.19459   1344.03784  185.00000  17.50572             13.57390
828.44828   1430.21839  87.00000   11.44898             9.73794
829.56502   1672.89238  223.00000  19.48266             14.72963
828.19540   2003.17241  87.00000   12.30084             9.11071
833.71924   393.84227   317.00000  24.23585             17.29569
826.55556   914.07407   27.00000   6.81221              5.00122
836.07000   1328.32333  300.00000  24.53370             15.74038
833.90683   1692.33540  161.00000  15.22966             13.49882
836.40088   1883.71806  227.00000  19.85929             14.58754
837.62150   514.01869   214.00000  19.94365             13.84122
839.05147   1724.97059  272.00000  25.45687             14.28729
836.10526   1907.19298  171.00000  15.22087             14.36927
838.85143   1077.37714  175.00000  15.78340             14.38902
840.54338   1509.58447  219.00000  17.33837             16.29590
842.84791   1610.19392  263.00000  19.56195             17.29175
838.03279   1766.95902  122.00000  13.60034             11.40764
836.40000   985.93333   30.00000   7.24624              5.29726
842.36970   1193.55152  165.00000  16.65556             12.75025
844.16588   870.96682   211.00000  17.88993             15.16621
844.26692   937.12406   266.00000  19.88874             17.04613
849.80729   1418.30729  192.00000  18.26211             13.41232
846.40625   1738.32031  128.00000  13.86230             11.76560
849.27545   755.08982   167.00000  17.09611             12.55156
850.73529   627.04412   204.00000  17.79912             14.76349
853.43192   1501.62441  213.00000  17.97528             15.14823
853.25806   347.50691   217.00000  19.70603             14.33528
856.49219   986.74609   256.00000  21.25908             15.77440
855.69231   1201.33136  169.00000  18.11848             12.23050
855.69500   411.36000   200.00000  16.60912             15.54397
856.53435   456.83969   262.00000  18.79638             17.78086
855.26906   685.94170   223.00000  17.07623             16.79197
860.51692   268.15692   325.00000  21.80175             19.38537
859.43231   798.98690   229.00000  19.61197             15.34956
861.70903   1797.37458  299.00000  20.33601             19.57058
862.08914   1436.54875  359.00000  25.90586             17.82857
863.28643   614.71859   199.00000  19.42297             13.24176
861.84000   943.32000   225.00000  18.94144             15.96860
862.85714   291.31746   189.00000  16.53697             14.66873
862.17073   1664.94512  164.00000  15.10258             13.84874
862.77903   309.43071   267.00000  25.71069             13.26950
865.37433   1713.79679  187.00000  17.82364             13.39539
873.91049   1580.93210  324.00000  22.32479             19.82440
872.17284   361.74691   324.00000  23.02748             18.15939
871.95516   680.76682   223.00000  21.53679             13.35208
874.05742   701.31100   209.00000  18.78184             14.23306
874.75877   918.99123   228.00000  19.24491             15.29130
872.88764   1003.20787  178.00000  16.78045             13.57607
874.43145   1048.94758  248.00000  18.02036             17.59359
876.39655   780.43103   174.00000  17.23430             13.05059
875.42857   979.82251   231.00000  18.68017             15.82228
876.98723   1676.90213  235.00000  20.52025             14.72144
878.32270   757.07447   282.00000  20.92172             17.54958
880.59060   1028.79195  149.00000  15.20819             12.48978
879.86188   1801.61326  181.00000  16.04239             14.41028
882.97980   996.69697   198.00000  20.50813             12.43981
882.00000   1743.39106  179.00000  17.99713             12.74426
887.26385   1618.52507  379.00000  26.30039             18.92435
882.74269   1923.01170  171.00000  15.73179             13.94262
885.83938   1660.05181  193.00000  18.04049             13.88524
885.73099   1690.71930  171.00000  15.65460             14.02756
884.16552   1961.51724  145.00000  15.61871             11.86355
886.97475   687.18182   198.00000  18.99802             13.40551
887.81771   1446.89583  192.00000  18.67575             13.10576
889.95439   973.52632   285.00000  21.25819             17.12502
888.16578   1704.76471  187.00000  17.09630             13.95316
892.93627   669.78922   204.00000  20.97865             12.53945
891.78968   1172.45238  252.00000  20.82905             15.58827
890.90521   1720.18483  211.00000  17.49886             15.43002
892.29493   1780.73733  217.00000  19.34851             14.32688
893.15423   810.92537   201.00000  19.03055             13.69008
892.72897   943.04673   214.00000  17.64567             15.54312
891.19126   1643.95628  183.00000  17.45867             13.36090
896.47788   1469.05310  226.00000  18.69771             15.43605
897.98182   662.49091   55.00000   9.67277              7.29845
901.24107   779.52679   224.00000  19.36297             14.92811
904.56164   1844.23288  219.00000  23.93450             11.96651
908.86542   955.50932   483.00000  28.89507             21.41546
902.66507   1062.36364  209.00000  17.83221             15.19306
899.00000   920.50000   18.00000   5.54259              3.99328
905.58904   1882.37900  219.00000  19.05262             14.67073
905.59641   279.78027   223.00000  19.11085             14.88393
906.79426   1727.97129  209.00000  17.80809             15.07746
906.18919   1830.12838  148.00000  16.61797             11.81302
908.23256   1587.37674  215.00000  19.40722             14.36210
909.05340   614.39320   206.00000  17.52513             14.99065
905.43333   1359.50000  30.00000   6.91000              5.71962
908.64189   1394.72297  148.00000  14.30820             13.17639
916.70196   842.34510   255.00000  26.92578             13.00698
912.19767   1510.43411  258.00000  20.82818             15.88537
907.51613   1666.19355  62.00000   9.84733              8.02260
917.59190   1080.66978  321.00000  25.23157             17.01178
915.51575   911.24016   254.00000  20.32763             15.92906
912.36126   1648.12042  191.00000  17.16664             14.19210
914.05714   1148.03429  175.00000  24.20952             9.74531
914.35450   1170.12169  189.00000  17.54312             13.73991
916.40851   1373.69787  235.00000  20.94444             14.36632
918.97990   742.13065   199.00000  16.98196             15.05691
922.42779   1534.78747  367.00000  24.64954             19.57415
916.85799   1759.38462  169.00000  16.59258             13.15755
918.26543   1810.76543  162.00000  14.62396             14.30302
920.88945   1624.48744  199.00000  16.92670             15.00360
923.25681   1708.37743  257.00000  19.98069             16.41265
924.07812   757.03646   192.00000  18.01597             13.64939
923.96591   809.13068   176.00000  17.05137             13.16865
923.27326   1149.84302  172.00000  18.71490             11.79577
926.09600   1585.56000  250.00000  18.97293             16.93041
925.57078   1673.64840  219.00000  17.93622             15.61220
923.19760   1991.97006  167.00000  15.83917             13.60794
929.89439   237.81518   303.00000  22.35090             17.57856
924.43972   664.54610   141.00000  14.84847             12.11169
926.36000   646.68000   175.00000  15.05029             14.84683
923.00000   1649.50000  44.00000   7.88554              7.03239
928.81347   1823.31088  193.00000  23.51835             10.57402
931.39823   1869.69027  226.00000  18.74708             15.41452
933.67596   1463.14634  287.00000  20.35898             18.33462
940.29855   1032.16812  345.00000  26.99679             17.20826
930.79167   852.40278   72.00000   11.19010             8.29608
930.71739   1065.91304  46.00000   9.05113              6.60566
936.97790   738.94475   181.00000  16.79718             13.73334
938.22596   1491.15865  208.00000  18.05762             14.69467
942.45151   211.41806   299.00000  22.04937             17.64973
939.25828   1849.59603  151.00000  17.52381             11.07318
941.95322   710.70175   171.00000  19.86205             11.35987
939.92857   1308.79762  168.00000  15.65217             13.84906
942.32609   1543.44565  276.00000  19.70918             17.89510
943.74713   643.06897   348.00000  32.83048             13.75827
941.84568   1682.66049  162.00000  14.71976             14.04639
941.35211   1241.94366  71.00000   10.30186             8.76649
944.30698   1450.16279  215.00000  17.71482             15.49951
943.86076   1609.64557  158.00000  16.54001             12.19905
944.59298   1133.11579  285.00000  24.95518             14.76845
945.36224   1726.20918  196.00000  21.21821             11.85147
947.01042   1082.06771  192.00000  19.73358             12.61985
949.26471   1363.79832  238.00000  21.37870             14.32877
945.60355   1654.44970  169.00000  15.73807             13.82928
948.26809   879.77447   235.00000  20.24638             15.01323
949.18807   957.82110   218.00000  19.67374             14.13870
949.13542   721.21354   192.00000  16.14594             15.16693
951.40343   1573.67811  233.00000  17.81119             16.69139
949.00568   1640.37500  176.00000  18.84155             12.04234
950.73822   1803.64398  191.00000  19.12278             12.73948
949.47321   1620.81250  112.00000  13.20404             10.86643
953.27861   1907.45274  201.00000  16.21208             15.83089
952.19162   1999.27545  167.00000  15.23017             14.05596
956.34686   817.07011   271.00000  19.10616             18.37391
957.96622   996.53716   296.00000  23.14755             16.56565
956.75304   1239.30769  247.00000  20.55612             15.46761
958.33898   1376.24294  177.00000  18.52905             12.22085
959.84667   1548.90000  150.00000  16.53873             11.59602
961.46269   1644.07960  201.00000  16.77755             15.51126
964.48649   1734.43243  111.00000  13.47642             10.56955
968.23671   1358.48309  207.00000  20.44922             13.14948
968.37037   801.02315   216.00000  19.36826             14.44532
968.72325   1876.36162  271.00000  24.05254             14.41615
968.94737   1101.83806  247.00000  18.64658             16.89462
968.51613   1478.34101  217.00000  18.49073             15.02034
974.22973   909.49775   444.00000  25.32776             22.61472
970.85854   1554.88780  205.00000  18.35323             14.49923
968.15000   1917.21429  140.00000  16.34001             11.02313
972.23350   1077.68020  197.00000  20.16967             12.50443
969.97196   1024.07009  214.00000  20.16338             13.57296
973.66812   1829.20961  229.00000  19.93839             14.93142
973.77328   1689.93522  247.00000  20.58767             15.28578
975.21017   966.96610   295.00000  22.31781             17.20732
977.25311   938.28216   241.00000  19.08541             16.42954
978.88235   1495.37433  187.00000  18.05000             13.27421
981.97701   469.53448   348.00000  27.43288             16.52606
985.21545   1639.78862  246.00000  23.71116             13.63991
982.60185   1604.30093  216.00000  19.78156             13.95896
984.70742   1706.13537  229.00000  18.36151             15.89224
983.10294   1746.79902  204.00000  19.11839             13.60308
987.58865   1226.41844  282.00000  23.23064             15.55653
985.48667   1545.25333  150.00000  17.32053             11.05303
986.44203   960.88406   138.00000  17.03958             10.45035
989.95259   1580.87500  232.00000  19.52510             15.16354
990.59615   1425.02564  156.00000  15.27436             13.02747
989.27273   1730.96694  121.00000  15.79230             9.85048
990.85507   1358.04348  69.00000   11.02271             8.04985
993.52841   1491.48864  176.00000  16.34193             13.71857
995.04592   1788.29082  196.00000  17.72973             14.29229
997.06180   1542.33146  178.00000  17.30165             13.13551
996.97119   1951.08642  243.00000  22.12029             14.19124
999.22078   1441.33766  154.00000  15.38692             12.79669
1000.74619  888.80711   197.00000  16.60409             15.15396
1003.77241  165.33793   290.00000  22.51215             16.47262
1015.23193  1041.72773  595.00000  33.27332             24.11796
1007.27692  1491.97949  195.00000  17.78645             14.09522
1008.00478  850.69856   209.00000  18.36051             14.58196
1012.20588  1424.64379  306.00000  19.81867             19.76898
1007.04839  1355.59677  62.00000   10.42395             7.58133
1009.97253  1536.37912  182.00000  19.09070             12.50944
1013.80711  932.22843   197.00000  19.99612             12.61794
1014.30341  1670.94737  323.00000  25.35293             16.56948
1013.88824  1564.12941  170.00000  18.37110             11.83463
1015.95312  803.70312   192.00000  16.38894             14.94292
1017.22024  1814.89286  168.00000  17.24267             12.52492
1022.53767  1406.33219  292.00000  23.94577             15.65521
1022.58466  838.87566   378.00000  33.08779             14.93018
1019.66316  1977.14211  190.00000  16.20724             15.14657
1020.29457  1476.48062  129.00000  13.74299             11.99609
1025.96043  572.75540   278.00000  22.41896             15.92985
1031.12971  1376.84519  239.00000  20.82186             14.67323
1029.37342  802.32911   158.00000  17.54000             11.49923
1032.08261  1341.85217  230.00000  19.25629             15.50560
1031.99510  518.00490   204.00000  16.84633             15.58167
1028.27273  772.00000   55.00000   10.33859             6.89636
1030.54945  1427.86264  182.00000  16.90738             13.75762
1035.68047  640.21598   338.00000  24.70683             17.59162
1035.27311  729.93277   238.00000  21.21438             14.35136
1040.24873  977.70558   197.00000  26.52083             9.75510
1036.10138  1552.14747  217.00000  18.84597             14.73338
1039.96066  1225.39344  305.00000  24.24533             16.47921
1036.17647  1940.23077  221.00000  18.15828             15.58059
1039.06135  1150.16258  326.00000  23.93014             17.53577
1036.65289  1969.21488  242.00000  21.34406             14.71535
1037.52821  1658.64103  195.00000  17.00050             14.70412
1038.28235  814.22941   170.00000  15.76263             14.24032
1038.92171  556.13879   281.00000  23.33713             15.51020
1040.02857  1390.93878  245.00000  19.59717             16.16675
1037.58382  1517.48555  173.00000  17.92312             12.27757
1040.37297  899.74054   185.00000  18.33639             12.87017
1041.49727  949.30601   183.00000  18.07637             13.07515
1045.55157  1036.82960  446.00000  28.42250             20.58940
1041.35616  2016.87671  73.00000   11.13251             8.77339
1043.23984  704.31301   246.00000  23.33886             13.48277
1046.92195  922.11707   205.00000  17.26667             15.26111
1044.46023  1623.14205  176.00000  18.02226             12.53486
1050.03534  865.13428   283.00000  25.34637             14.35622
1053.45200  1001.17200  250.00000  23.61937             14.16867
1049.91429  1013.54286  70.00000   11.31624             7.86466
1054.89474  801.36316   190.00000  17.35019             13.98078
1053.98883  886.97207   179.00000  16.56546             13.87197
1055.12644  932.88506   174.00000  18.48075             12.80335
1057.04701  1545.07265  234.00000  22.07366             13.83732
1053.27273  1317.12727  55.00000   11.08472             6.30495
1055.01370  1615.02740  146.00000  16.67043             11.24568
1060.10651  468.60355   338.00000  27.44824             15.72747
1062.50385  1340.46923  260.00000  20.14592             16.43365
1060.99512  1454.87805  205.00000  17.42765             15.00177
1063.22326  1262.54419  215.00000  19.45991             14.10128
1064.32237  877.71711   152.00000  18.28141             10.67730
1068.22439  670.70244   205.00000  22.00926             11.88581
1066.76000  1294.62000  250.00000  18.81748             16.95873
1067.68817  866.10215   186.00000  16.19615             14.72196
1069.74370  438.97899   238.00000  20.03022             15.23434
1070.43750  722.18125   320.00000  21.66746             18.90326
1068.05376  927.32796   186.00000  17.81463             13.39278
1070.85281  1206.67965  231.00000  22.93990             12.89241
1072.74895  826.97908   239.00000  18.20848             16.94159
1073.08377  988.84293   191.00000  20.32407             11.99284
1073.68896  1019.15050  299.00000  23.60156             16.39110
1073.34100  1528.62835  261.00000  19.54359             17.30858
1074.62963  1614.65021  243.00000  22.43977             14.08819
1073.63158  689.94737   171.00000  15.87945             13.72543
1082.29683  961.98271   347.00000  29.71282             15.41207
1076.44715  423.18699   246.00000  18.37405             17.25094
1076.72816  1429.27670  206.00000  20.56367             13.08857
1081.71795  1360.01923  312.00000  24.57004             16.66436
1080.41322  1058.48347  242.00000  18.26952             17.26173
1080.24540  1385.44172  163.00000  18.48375             11.23461
1078.34507  2035.32394  142.00000  14.21232             12.87219
1079.87958  1999.56021  191.00000  17.55452             13.86430
1080.37853  850.54802   177.00000  15.79213             14.32027
1091.59228  748.82383   596.00000  36.42981             21.67286
1086.81605  813.12709   299.00000  26.44069             15.05475
1087.19444  946.25000   216.00000  18.22495             15.17387
1092.42559  1272.34726  383.00000  29.61636             17.29024
1088.14744  1660.92949  156.00000  15.77599             12.57280
1091.65595  1324.61736  311.00000  31.88724             12.75378
1092.92963  1632.93333  270.00000  19.56542             17.95569
1093.27136  916.36683   199.00000  18.17594             13.94506
1096.39583  539.43229   192.00000  16.68980             14.69819
1095.93333  863.49091   165.00000  15.48593             13.67474
1092.84615  1075.88462  26.00000   6.35546              5.22725
1098.66527  1578.79498  239.00000  24.37588             12.56030
1104.82569  990.19495   436.00000  27.71753             21.67996
1102.63087  1056.20805  298.00000  23.84261             16.08491
1099.80556  1245.37654  324.00000  28.59532             15.05634
1102.47266  1442.89844  256.00000  20.78108             15.87749
1101.07115  806.33992   253.00000  22.19568             14.78272
1105.96038  1308.34528  530.00000  36.90552             21.13544
1101.04651  578.45930   172.00000  17.16218             12.95443
1104.67249  873.87336   229.00000  20.20548             14.82716
1104.17573  734.92050   239.00000  18.50528             17.07053
1109.94637  887.60252   317.00000  27.86187             16.22225
1102.26286  1031.23429  175.00000  19.94258             11.28696
1111.75796  928.64650   314.00000  30.52728             13.45062
1103.26897  1348.34483  145.00000  17.06621             11.21460
1110.55128  1457.63248  234.00000  20.29500             14.81610
1111.89150  1500.66862  341.00000  25.99519             16.82426
1110.48252  1354.90210  143.00000  16.44924             11.60685
1111.30973  391.80531   226.00000  19.48880             14.98763
1110.83562  946.52055   146.00000  16.86926             11.34164
1115.39910  1097.83857  223.00000  20.77911             13.94893
1112.28846  645.90385   260.00000  23.52199             14.14887
1121.00990  716.57426   202.00000  17.91525             14.39828
1121.36154  954.45769   260.00000  21.16762             16.29241
1118.71672  1324.99317  293.00000  32.27426             12.08991
1125.53208  1409.00377  265.00000  23.22930             14.69765
1122.46619  1425.57651  281.00000  19.82617             18.47283
1122.98828  1680.94141  256.00000  23.70676             13.97077
1125.86667  347.50145   345.00000  26.34387             16.78060
1121.63878  563.73384   263.00000  26.49994             12.78038
1123.60526  997.76316   190.00000  17.82697             13.66626
1123.44670  1591.81726  197.00000  19.64976             12.79623
1125.01887  750.45912   159.00000  14.30273             14.14936
1127.04231  785.45000   260.00000  20.57851             16.28102
1129.11417  1016.18110  254.00000  24.58034             13.45460
1128.11638  1092.64655  232.00000  21.25141             14.04022
1126.48031  893.20472   127.00000  15.77508             10.40355
1133.23045  1359.66667  243.00000  23.83051             13.46653
1131.86982  1047.21302  169.00000  17.19105             12.57369
1130.31818  1068.52273  44.00000   8.74181              6.39233
1136.55405  1638.43243  222.00000  19.85671             14.28305
1138.82414  832.19655   290.00000  21.69887             17.03843
1137.76991  923.92920   226.00000  20.87269             13.80797
1134.98291  889.41880   117.00000  14.96519             10.06481
1139.19433  1142.47773  247.00000  22.46158             14.05537
1137.99038  1521.80769  208.00000  19.92122             13.28729
1140.39381  852.79646   226.00000  19.13308             15.15882
1145.60000  1336.94444  270.00000  23.10540             15.31900
1150.81050  957.18721   438.00000  29.85037             19.03380
1146.87562  1056.52239  201.00000  18.22713             14.19809
1145.78261  1555.89565  230.00000  23.32957             12.84764
1145.22078  890.27273   154.00000  15.67532             12.58334
1151.02347  1176.34742  213.00000  17.19757             15.77761
1153.55952  1651.87302  252.00000  20.38721             15.87998
1157.39552  1154.83209  268.00000  21.62365             15.87172
1157.57940  1673.95279  233.00000  22.31904             13.56872
1161.09661  1138.05222  383.00000  26.21087             19.06327
1161.52988  1290.19124  251.00000  23.12347             13.90078
1161.41048  297.48908   229.00000  18.79866             15.75966
1163.23846  1018.60385  260.00000  20.62023             16.10735
1167.28931  655.86164   318.00000  20.98832             19.41297
1167.36475  1647.77459  244.00000  25.20117             12.37628
1169.20000  1334.24444  225.00000  23.30875             12.59116
1167.68812  1449.07426  202.00000  17.69420             14.62005
1172.17826  896.52609   230.00000  20.05936             14.85197
1169.93333  642.36667   60.00000   9.93765              7.71714
1176.38636  872.80909   220.00000  18.45291             15.22230
1171.70588  1107.17647  34.00000   7.09472              6.09871
1177.87970  1076.45113  266.00000  21.21717             16.55061
1180.20741  953.78519   270.00000  19.00742             18.15047
1179.63819  1057.38191  199.00000  16.13065             15.71790
1184.71617  1010.50165  303.00000  22.13067             17.77956
1185.88722  1705.97368  266.00000  24.90236             13.68126
1178.92593  1024.37037  27.00000   7.17942              4.81771
1181.82432  1376.44144  222.00000  22.09644             13.21310
1186.90936  1397.99415  342.00000  25.27684             17.29184
1186.92093  987.15814   215.00000  19.34419             14.35755
1185.94323  1190.64192  229.00000  19.61150             14.90149
1184.06522  661.15217   46.00000   8.91640              6.57189
1187.75484  1275.12903  155.00000  16.59919             12.35549
1193.19950  258.17207   401.00000  28.56216             18.35233
1188.53846  646.20513   78.00000   14.01045             7.31946
1192.07065  1071.06522  184.00000  17.74586             13.35069
1192.77228  1323.56436  202.00000  19.89728             13.20344
1187.84375  1042.59375  32.00000   6.66866              6.12354
1197.94393  1251.44860  214.00000  20.59595             13.93356
1196.77124  1409.81046  153.00000  15.30305             12.76071
1198.25267  217.68327   281.00000  24.14147             14.89467
1197.58824  663.88235   102.00000  14.24270             9.39000
1203.80456  1294.29967  307.00000  23.10321             17.03373
1204.93317  745.77566   419.00000  25.17341             21.58052
1201.04938  1204.23457  162.00000  16.53779             12.53743
1202.11765  1035.58824  51.00000   9.06215              7.21396
1205.01911  1133.03185  157.00000  16.16763             12.37574
1209.07500  972.06875   160.00000  15.72992             13.00400
1210.52399  1686.90775  271.00000  20.58787             16.86438
1217.55147  1236.07843  408.00000  26.10075             21.03084
1215.40083  1114.55372  242.00000  19.32637             16.08368
1220.96864  865.32056   287.00000  28.97700             12.74943
1217.22083  1282.84583  240.00000  21.00837             14.82412
1216.15385  664.53846   26.00000   6.51042              5.02116
1223.56889  1005.83111  225.00000  19.84153             14.58779
1225.95263  1041.74737  190.00000  16.86232             14.45118
1230.92857  193.13354   322.00000  21.69745             19.42040
1232.70588  906.33824   204.00000  24.90227             11.03808
1229.88525  668.83607   61.00000   10.82192             7.20765
1231.58182  692.67273   55.00000   9.25074              7.53799
1236.13018  1211.37870  169.00000  18.51371             11.74290
1239.33750  682.96875   160.00000  15.36442             13.49060
1245.91026  1340.43590  156.00000  21.34478             9.44082
1243.70068  672.23129   147.00000  15.60754             12.13499
1247.51020  997.21769   147.00000  16.62499             11.56317
1248.94796  1106.91078  269.00000  21.03899             16.96576
1250.17778  879.18272   405.00000  29.32988             17.93135
1247.62162  632.56757   37.00000   7.79684              6.07005
1249.16438  656.63014   73.00000   11.34629             8.18516
1255.45148  704.16034   237.00000  18.45843             16.42018
1254.90476  603.20952   105.00000  13.26046             10.09283
1253.42308  690.21154   52.00000   8.90913              7.59361
1264.29032  1287.06452  279.00000  27.43343             13.05732
1258.31522  729.90217   92.00000   13.59975             8.61241
1263.83495  1268.57524  412.00000  25.82172             20.49707
1265.55145  635.56728   379.00000  25.08006             19.30193
1262.07865  716.04494   89.00000   12.10298             9.43779
1266.41530  979.77596   183.00000  20.84192             11.32130
1264.58763  684.82474   97.00000   14.54417             8.83393
1266.47191  1164.14607  178.00000  16.64615             13.78450
1269.53774  172.57075   212.00000  18.40588             14.73246
1269.16374  585.16374   171.00000  18.82875             11.82278
1272.57895  887.74737   190.00000  16.69585             14.77414
1269.19178  614.91781   73.00000   11.25071             8.33947
1270.45679  655.33333   81.00000   13.83445             7.47905
1273.07500  1296.90000  80.00000   11.49428             8.83355
1279.42636  825.06202   258.00000  23.62452             14.19785
1283.61340  970.48454   194.00000  21.87702             11.54243
1284.74237  1109.86441  295.00000  24.99422             16.41642
1281.28846  1180.03846  52.00000   11.08067             6.06521
1288.66566  1304.32831  332.00000  26.36234             16.30199
1288.14388  131.61871   278.00000  21.44770             16.60243
1292.10059  1162.98521  338.00000  28.44329             15.61815
1289.50420  1241.63025  238.00000  20.90625             14.56489
1292.96045  1259.55085  354.00000  26.81322             17.61136
1292.37297  892.48649   185.00000  21.09275             11.28031
1294.29146  1020.91960  199.00000  18.01164             14.08331
1297.17172  904.84343   198.00000  17.51975             14.41633
1305.58807  174.67045   352.00000  24.71927             18.26834
1300.27586  1004.37931  29.00000   7.83299              5.00557
1302.98507  1077.33333  201.00000  18.69122             13.72006
1323.86164  1185.32390  318.00000  27.15164             15.06961
1324.26866  97.20000    335.00000  21.25116             20.09149
1324.42808  1006.86644  292.00000  26.09150             14.65455
1326.21549  1076.81145  297.00000  24.98588             15.29629
1330.95322  1047.65497  171.00000  20.68027             10.83856
1336.83756  1097.96954  197.00000  17.70706             14.61009
1339.24074  1006.34074  270.00000  22.94745             15.05717
1342.84262  62.17377    305.00000  24.69411             15.80528
1342.49164  1153.36455  299.00000  20.82719             19.30690
1343.12621  647.54693   309.00000  22.18090             17.88137
1346.63801  1203.53846  221.00000  20.68588             13.73970
1356.78095  1061.46349  315.00000  21.03944             19.67790
1362.14173  1000.39108  381.00000  24.26236             20.30896
1355.05882  739.57353   68.00000   11.62586             7.51413
1364.70662  716.29968   317.00000  21.30168             19.12152
1373.26810  763.83110   373.00000  22.95691             21.01081
1371.94091  1119.36364  220.00000  18.53184             15.38592
1372.87281  1063.19298  228.00000  20.12486             14.54679
1378.67213  280.68852   122.00000  14.69614             10.74430
1389.01562  256.53906   128.00000  13.51282             12.15012
1397.26316  226.00000   133.00000  13.52700             12.56691
1406.63846  1092.28462  260.00000  20.77441             15.96504
1406.85075  191.32090   134.00000  14.29531             11.98375
1414.25442  807.55124   283.00000  29.32441             12.62638
1421.10127  110.84810   79.00000   11.72519             8.66314
1428.37799  1106.39713  209.00000  17.58555             15.51805
1429.08197  56.49180    61.00000   9.92715              8.09971
1435.02952  855.52030   271.00000  19.89089             17.49833
1440.77174  987.43841   276.00000  19.54884             18.06969
1443.11255  1105.65368  231.00000  17.66606             16.83857
1454.00000  999.08861   158.00000  15.71075             12.82141
1456.11789  1076.32927  246.00000  18.77774             16.91803
1465.29571  965.39278   443.00000  29.29358             19.66482
1469.73361  1014.92213  244.00000  22.39860             13.98435
1470.10194  985.94175   206.00000  17.39582             15.09066
1474.38971  852.43627   408.00000  29.34152             17.84662
1472.68359  1047.49219  256.00000  19.01096             17.39736
1471.75000  875.64286   56.00000   10.15976             7.05255
1477.29969  1177.78287  327.00000  25.15895             17.15672
1478.29204  1097.53982  226.00000  20.51942             14.48976
1484.22000  1107.98667  150.00000  14.70970             13.10144
1497.72449  1011.31293  294.00000  20.33858             18.64080
1498.29478  1200.08209  268.00000  23.47695             14.81398
1500.61625  1034.71148  357.00000  22.20615             20.78474
1500.27907  1082.76357  258.00000  20.61491             16.10001
1507.80075  899.28947   266.00000  20.34682             16.77541
1514.68116  1124.37681  276.00000  20.15098             17.51883
1517.59930  1012.26132  287.00000  20.76703             17.63814
1517.48315  1147.20974  267.00000  21.12632             16.21012
1525.06857  1044.80000  175.00000  16.63587             13.40772
1529.66786  1090.57500  280.00000  19.23168             18.66093
1543.14184  944.50709   282.00000  21.25758             17.14741
1571.34802  448.59912   454.00000  31.46195             18.71177
1598.05668  439.59514   247.00000  18.53638             16.99047
1618.73256  415.39244   344.00000  25.03882             17.69266
1623.21875  362.21875   192.00000  17.22413             14.29911
1627.72285  319.43820   267.00000  22.29974             15.57659
1645.09730  305.07027   185.00000  17.99133             13.11139
1794.45344  730.06073   247.00000  18.40524             17.14866
1874.60638  393.54787   188.00000  19.04657             12.56429
1893.51111  1715.52000  225.00000  18.87579             15.31414
1906.10396  337.17327   202.00000  24.45849             11.85140
1904.91379  379.06897   174.00000  17.76821             12.51589
1911.88444  1597.77778  225.00000  21.65281             13.27658
1931.75725  1467.34058  276.00000  20.32010             17.35576
1936.39344  1490.85792  183.00000  17.11868             13.65373
1937.59006  1622.60870  161.00000  17.62967             11.78614
1954.33333  1466.44889  225.00000  20.23316             14.22297
1956.77632  1488.75000  152.00000  16.66114             11.82217
1973.76792  818.02389   293.00000  21.22099             17.64941
1981.09662  1615.95169  207.00000  18.13433             14.67203
1986.30159  835.14286   189.00000  16.97237             14.28427
1987.11345  1556.94538  238.00000  18.74870             16.25317
1986.58042  1514.69930  143.00000  14.53598             12.53560
1997.39779  246.17680   181.00000  16.91020             13.95442
2006.71863  1608.98479  263.00000  19.34277             17.32384
2013.21739  633.11594   207.00000  18.93325             14.22729
2015.17901  1654.58642  162.00000  16.56987             12.66928
2021.37003  864.24159   327.00000  23.75978             17.73280
2023.66667  1635.93220  177.00000  15.44115             14.65813
2024.06803  1673.26531  147.00000  14.91844             12.66289
2031.55556  346.89316   234.00000  18.61366             16.20596
2030.51754  296.13158   114.00000  13.52129             10.78570
2034.88372  256.67442   129.00000  14.17290             11.87040