# Filename: Nuclei_416_bidi_60x_016.npz
# Voxel size (nm): (108, 108)
# Area quantity: voxels
# Num nuclei detected: 755
Y           X           AREA       MAJOR_AXIS_LENGTH    MINOR_AXIS_LENGTH
13.78195    647.69173   133.00000  14.63852             11.61685
17.41053    502.08421   95.00000   12.80439             9.59691
28.85465    724.29070   172.00000  21.18533             10.74022
30.30890    517.30366   191.00000  16.42125             14.86026
31.19565    786.47826   138.00000  16.51194             10.67354
37.06367    206.50936   267.00000  20.45408             16.72712
38.61765    757.66667   102.00000  13.00644             10.31512
43.23077    570.41346   208.00000  19.39484             13.66998
52.56805    811.26627   169.00000  20.68344             10.51480
50.74825    517.59441   143.00000  15.05969             12.13647
58.53744    740.66520   227.00000  23.49738             12.41766
63.01304    640.74783   230.00000  20.08333             14.65266
68.76154    883.53846   130.00000  14.73798             11.29792
68.17000    1342.99000  100.00000  13.47645             9.51637
73.94776    992.67164   134.00000  14.94493             11.48976
73.78761    271.65487   113.00000  14.36596             10.24223
75.21547    377.59116   181.00000  16.42284             14.16946
76.33455    935.34182   275.00000  22.86073             15.38582
84.95732    641.71951   164.00000  15.28801             13.82164
96.48544    843.93204   309.00000  23.96788             16.51362
113.67961   1132.15534  309.00000  24.58626             16.10922
113.49259   827.86296   270.00000  22.06539             15.76361
130.32192   379.96575   146.00000  14.15622             13.14226
133.47208   323.42640   197.00000  19.87275             12.65794
135.27363   817.48259   201.00000  18.07717             14.23307
133.85455   580.91818   110.00000  12.69890             11.15354
137.98701   948.01732   231.00000  20.22143             14.65165
145.48606   1145.96016  251.00000  25.65897             13.34536
145.89796   272.88776   196.00000  17.98170             13.97536
148.50641   1067.17949  156.00000  16.34539             12.50659
156.79936   922.61146   314.00000  25.39227             15.92243
153.65714   329.45714   70.00000   9.90569              9.29339
168.28333   276.43333   120.00000  15.16952             10.11913
173.28070   1131.60088  228.00000  21.60837             13.66025
171.11207   1073.16379  116.00000  13.30341             11.14371
176.61826   606.60581   241.00000  21.28483             14.48984
176.54054   1251.06757  148.00000  16.45975             11.52220
186.36735   802.93878   196.00000  22.10287             11.29291
197.30047   46.64789    426.00000  31.76177             17.34180
191.33333   855.45098   153.00000  14.59797             13.37291
200.05181   601.19171   193.00000  17.19343             14.44674
206.04054   1043.63514  296.00000  25.67518             14.84447
204.14085   1512.57042  284.00000  24.38676             14.95869
205.73401   994.96296   297.00000  22.77604             16.79718
215.58868   1243.56604  265.00000  21.65294             15.72199
216.96983   1093.42672  232.00000  19.81853             14.99958
220.72685   1153.90278  216.00000  20.98532             13.21802
228.28340   792.16194   247.00000  26.80586             12.12887
229.31227   92.28253    269.00000  21.60979             15.89771
230.01005   527.35678   199.00000  19.45851             13.20391
228.81560   174.68794   141.00000  15.24087             11.82603
235.26636   1479.14953  214.00000  20.99871             13.00865
234.78182   1082.97273  220.00000  17.58638             16.07426
239.84158   222.71782   202.00000  22.32012             13.24327
240.13025   903.58403   238.00000  22.29661             13.65566
243.63900   919.04149   241.00000  20.43535             15.15404
245.53030   19.35606    132.00000  15.36565             11.50121
251.83673   1257.87075  147.00000  16.76718             11.21548
257.94068   1817.14407  118.00000  17.29830             8.76283
264.04776   1075.06269  335.00000  24.06904             18.24992
264.55077   1150.05231  325.00000  26.89466             15.43308
262.66045   1455.83955  268.00000  23.96613             14.52412
260.42222   493.89630   135.00000  14.24256             12.10292
262.06211   923.72671   161.00000  15.54960             13.21900
264.98707   1047.96983  232.00000  21.48176             14.21144
262.21348   1244.40449  89.00000   12.65840             9.04495
272.13253   978.58434   166.00000  19.90040             10.81112
277.36877   1004.59136  301.00000  22.71423             17.00303
276.90535   150.90535   243.00000  21.16249             14.75821
279.09677   237.37097   248.00000  19.99117             16.07447
283.40092   802.29493   217.00000  28.53883             9.77939
279.56716   344.74627   67.00000   10.51493             8.17931
285.09873   904.34713   314.00000  22.24123             18.05463
283.16279   324.23256   172.00000  19.37444             11.35034
288.38226   868.90826   327.00000  23.48814             17.90118
285.38164   1248.88406  207.00000  17.13408             15.45927
288.23770   979.92213   244.00000  20.54772             15.34531
292.21898   466.32847   137.00000  15.14913             11.84123
292.60000   443.88000   200.00000  17.61782             14.58020
293.32743   1378.21239  113.00000  14.42357             10.49912
296.39773   397.30114   176.00000  15.48293             14.59223
302.84103   964.93333   195.00000  20.91693             12.18644
300.90960   155.25989   177.00000  16.92750             13.33360
302.31834   234.02422   289.00000  21.73118             17.11615
305.90380   942.17002   447.00000  28.90148             20.36787
311.17021   1022.43465  329.00000  24.55204             17.24937
311.52155   854.46983   232.00000  21.32688             14.08976
310.80496   1165.07447  282.00000  21.47395             16.82330
313.68165   766.85768   267.00000  21.10175             16.21551
323.75000   90.47984    248.00000  20.86684             15.49466
328.21569   1659.66667  255.00000  19.27777             16.92412
331.45082   772.21721   244.00000  18.89480             16.55877
334.99583   26.73750    240.00000  19.87470             15.42812
343.72013   991.01572   318.00000  23.52286             18.20592
348.60630   64.46457    254.00000  19.58480             16.67612
353.13433   763.70522   268.00000  22.51201             15.25531
358.67868   1323.61862  333.00000  27.01161             15.87613
366.78618   789.88487   304.00000  22.32895             17.54246
368.56329   1679.08228  158.00000  15.84403             12.72034
374.96281   1136.52479  242.00000  22.11405             14.15481
372.71519   849.88291   316.00000  27.76766             14.83228
372.30508   569.86441   59.00000   9.59899              7.89173
383.30743   967.46622   296.00000  27.73492             14.05782
379.36000   1116.10000  300.00000  27.63446             14.38041
382.52290   1287.01908  262.00000  24.23653             14.06949
385.26351   682.57770   296.00000  28.27059             13.66781
386.52212   866.29499   339.00000  25.76707             16.83348
384.95131   791.37453   267.00000  22.98379             14.90578
385.64931   1163.46528  288.00000  24.26920             15.39361
386.83237   706.60694   173.00000  15.65302             14.07548
389.73810   978.94444   126.00000  17.02171             9.54373
391.15748   726.92126   254.00000  21.88246             15.92602
396.05282   1227.16901  284.00000  21.98475             16.56911
394.41494   1110.27801  241.00000  19.56608             16.03415
397.08869   905.71254   327.00000  24.49616             17.08786
400.96565   583.88550   262.00000  21.53282             15.72432
398.26556   669.70954   241.00000  20.41968             15.05544
400.44518   1174.06645  301.00000  22.10583             17.43401
401.96218   640.26050   238.00000  19.96160             15.23670
400.38150   885.78613   173.00000  17.73388             12.45562
410.18092   960.45066   304.00000  26.29544             15.22939
412.01500   557.55500   200.00000  19.95098             12.78383
414.27907   1025.89767  215.00000  20.17307             13.66871
416.53763   763.32796   186.00000  17.11133             13.83609
422.40766   931.31532   444.00000  24.99603             22.98987
422.58423   875.79570   279.00000  21.34807             16.83852
424.34050   747.11470   279.00000  24.83351             14.36287
424.19459   1688.96216  185.00000  16.96028             14.04168
422.31868   578.21978   91.00000   12.33942             9.40775
427.48000   967.26182   275.00000  19.09886             18.48733
424.88136   836.45763   59.00000   11.77457             6.61947
429.11600   985.08000   250.00000  20.69842             15.47520
429.84762   1019.54286  210.00000  19.58313             13.72329
431.65919   1081.20628  223.00000  24.29413             11.92091
433.94751   806.46409   362.00000  24.80319             18.65201
430.51337   844.04813   187.00000  16.31032             14.95547
431.54545   1148.65000  220.00000  17.70804             15.87896
433.06884   1063.53986  276.00000  20.77668             17.13703
434.04710   1129.65942  276.00000  23.18179             15.25874
432.15152   590.03030   99.00000   11.48906             10.98683
440.18284   783.75746   268.00000  23.75872             14.53825
437.47368   1006.57895  38.00000   8.02783              6.00622
437.06897   1030.24138  29.00000   6.75067              5.48724
445.10968   1563.28710  310.00000  21.08093             18.85409
445.78613   1158.57803  173.00000  17.16006             13.07816
445.52514   847.56983   179.00000  17.55826             13.09866
445.41958   1170.12587  143.00000  15.86927             11.58632
448.25795   1189.99293  283.00000  21.06004             17.62957
448.43404   1087.90638  235.00000  19.95302             15.17497
451.93916   1039.01141  263.00000  21.10287             15.90822
455.26296   830.80370   270.00000  19.89331             17.65303
455.62288   1719.80508  236.00000  19.23845             16.09133
452.89394   1786.66667  132.00000  16.29543             11.07076
458.41500   1668.55000  200.00000  20.54463             12.42589
458.24498   1738.04016  249.00000  21.69993             14.76668
459.71500   775.48000   200.00000  17.06019             15.01612
463.66899   889.77700   287.00000  21.37149             17.34503
463.37864   966.84951   206.00000  17.59500             14.97417
462.84906   924.26415   159.00000  16.57592             12.28117
462.45082   1587.22131  122.00000  14.46152             10.79508
469.23404   1069.65957  141.00000  17.22036             10.45718
474.76296   1140.59630  270.00000  24.52490             14.17773
476.18966   720.78448   232.00000  18.43414             16.16622
477.34783   974.36957   138.00000  15.10262             11.64791
483.12139   1161.97399  346.00000  25.30545             17.57002
482.70565   1076.57258  248.00000  23.35675             13.74038
483.13783   990.31085   341.00000  23.36052             18.67524
483.22872   1801.80319  188.00000  18.22258             13.16718
486.95367   937.92664   259.00000  22.44218             14.82602
483.39623   917.59906   212.00000  19.05113             14.24478
485.13772   1123.76647  167.00000  17.15088             12.53310
490.18932   797.20874   206.00000  19.72687             13.61707
489.87435   1063.55497  191.00000  16.31270             15.19311
490.75115   1097.14286  217.00000  19.07816             14.54872
497.14552   1032.17910  268.00000  19.91987             17.16001
497.18557   1632.19588  97.00000   14.04752             8.80119
500.36420   1836.23457  162.00000  18.55626             11.34078
500.08621   1164.64655  116.00000  12.62499             11.85002
503.96087   1579.24348  230.00000  18.64183             15.80192
503.54245   1061.88679  212.00000  20.33675             13.41899
505.12617   995.02336   214.00000  18.97894             14.39315
509.85714   750.62449   245.00000  21.55685             14.71529
509.42268   774.05155   194.00000  18.34000             13.73839
515.40336   1163.21849  119.00000  12.84796             11.80940
517.06452   1849.69892  93.00000   13.20091             9.38791
522.83871   778.07742   155.00000  17.53175             11.32496
524.83178   1544.17290  214.00000  18.63949             14.67317
530.59391   1164.02030  197.00000  19.09163             13.18250
526.91837   759.75510   49.00000   8.18353              7.61606
535.74429   1004.01826  219.00000  20.05918             14.17479
536.53738   1021.19626  214.00000  17.91015             15.22569
537.69534   1084.70251  279.00000  22.68468             15.76197
536.68889   1175.06667  45.00000   8.26435              6.91155
542.21711   772.45395   152.00000  17.18688             11.47684
543.50980   1831.39706  204.00000  19.34079             13.55446
549.38596   1123.00000  171.00000  17.43572             12.56554
550.63636   1762.71123  187.00000  19.18314             12.63816
556.71569   824.40850   306.00000  25.69872             15.42698
556.20992   722.94275   262.00000  19.99901             16.76463
553.81553   778.33010   103.00000  12.00800             11.07808
571.22624   1722.34842  221.00000  18.47248             15.27683
576.97605   1143.70659  167.00000  17.22996             12.35766
585.54286   794.76667   210.00000  25.71798             10.66409
589.42089   1167.23418  316.00000  25.97119             15.85419
592.72414   738.06404   203.00000  18.14157             14.52581
595.56710   754.06926   231.00000  22.38273             13.86791
591.49020   1681.33824  204.00000  16.73055             15.57719
590.95425   724.35948   153.00000  16.74004             11.88273
596.21854   626.27815   151.00000  18.69923             10.41739
599.34259   1152.56944  216.00000  17.33340             16.21516
601.00621   1832.93789  161.00000  16.26937             12.77772
610.51198   867.21557   334.00000  28.39477             15.29462
613.98828   1178.20703  256.00000  19.80024             16.78951
615.04306   1676.44019  209.00000  19.11230             13.96824
616.94521   623.27397   219.00000  19.68163             14.20740
616.82734   856.43885   139.00000  18.50212             9.90375
627.53505   836.26402   428.00000  29.64030             18.79203
620.71186   1863.66102  118.00000  16.26209             9.33218
624.07910   605.20904   177.00000  16.52096             13.77375
630.00000   309.73661   224.00000  21.17367             13.48258
635.79330   774.63687   179.00000  17.93813             12.70156
640.14943   788.05747   174.00000  16.94057             13.24083
641.53219   1654.87124  233.00000  20.27897             14.72498
641.82105   1853.01053  95.00000   12.76715             9.52898
648.03125   326.31641   256.00000  22.83224             14.32249
650.42213   1928.65164  244.00000  18.29177             16.99070
664.92580   775.76678   283.00000  31.93190             11.55857
665.25514   347.03704   243.00000  26.23923             12.00355
666.99703   876.76558   337.00000  23.45573             18.77367
676.35593   922.73898   295.00000  20.05687             19.15012
677.25806   566.62903   248.00000  19.48330             16.36986
690.22611   798.70382   314.00000  27.76001             14.58910
689.03241   393.78241   216.00000  24.64460             11.16953
698.48571   1057.80357  280.00000  27.88508             13.12910
694.51818   577.28182   110.00000  12.69747             11.38612
698.85417   1926.35417  48.00000   9.40446              6.57335
698.90909   911.09091   33.00000   8.26823              5.04307
708.01149   1747.70115  261.00000  26.16563             12.84977
713.14760   398.15129   271.00000  25.83039             13.40164
711.43030   488.69697   165.00000  17.62861             11.94129
715.95984   888.47791   249.00000  21.62309             14.86183
714.92784   541.03093   194.00000  16.32648             15.15511
718.06597   958.22917   288.00000  21.88118             16.79364
714.85561   1930.05882  187.00000  16.99653             14.07436
718.17241   796.04598   87.00000   14.47042             7.76264
715.08163   938.02041   49.00000   9.33506              6.70733
716.67647   1478.23529  102.00000  14.48374             9.07776
718.70690   829.84483   58.00000   10.60115             6.93272
729.84416   477.62662   308.00000  24.07298             16.91390
724.05882   788.28676   136.00000  16.58138             10.43938
734.77778   821.55144   243.00000  28.03984             11.30554
730.44086   1481.01075  186.00000  18.81844             12.72716
732.75258   584.50000   194.00000  17.34914             14.32203
731.12222   738.68889   90.00000   13.19848             8.83499
734.29221   1935.35065  154.00000  15.94081             12.52162
738.42593   643.81111   270.00000  27.72174             13.36228
740.48515   1006.75743  202.00000  18.91215             13.70695
750.00297   838.18398   337.00000  33.21334             13.11170
745.55497   440.29319   191.00000  19.05213             12.87763
744.71315   517.79283   251.00000  20.89418             15.39893
744.96500   756.16500   200.00000  22.12280             11.62268
746.18493   980.20548   292.00000  23.65948             15.84145
742.82308   551.93077   130.00000  15.98459             10.43847
750.38387   686.04839   310.00000  24.84795             16.45650
752.83333   730.65705   312.00000  22.95035             18.08332
750.00446   1733.40179  224.00000  20.16224             14.22676
751.08148   1698.15926  270.00000  23.68974             14.66272
754.19600   642.35200   250.00000  18.35782             17.78565
755.98529   920.81863   204.00000  21.13032             12.35581
759.17706   496.14464   401.00000  39.12216             16.30727
759.58468   430.59677   248.00000  20.30853             15.64348
767.74242   1710.73864  264.00000  19.43767             17.48657
768.34524   517.78571   168.00000  19.49109             11.26852
766.51376   648.65138   109.00000  14.23371             9.81128
767.11111   676.39444   180.00000  17.09255             13.68868
769.80930   832.11628   215.00000  20.04629             13.79549
780.70438   335.43796   274.00000  28.82010             12.73768
776.59624   1456.43192  213.00000  19.07470             14.25684
780.62332   448.29148   223.00000  23.65282             12.09528
781.50622   924.27801   241.00000  22.70688             13.72729
777.83544   968.91772   158.00000  15.42516             13.19777
777.58940   1265.07947  151.00000  15.65584             12.31124
779.59783   380.86232   276.00000  23.63657             15.10498
782.66327   1011.02551  196.00000  16.72024             15.09145
783.32803   1039.25478  314.00000  22.63851             17.66638
784.00000   955.70701   157.00000  16.44680             12.19906
789.84918   865.01967   305.00000  28.06483             14.04938
791.29545   1269.55114  176.00000  16.22770             13.86774
798.82403   330.10730   233.00000  20.44135             14.65408
803.45918   747.85034   294.00000  24.80357             15.80462
801.56477   10.94819    193.00000  18.08240             13.63570
803.19048   1065.92857  42.00000   7.48129              7.10041
807.10588   1251.35294  85.00000   12.96208             8.53369
811.07692   474.13846   195.00000  18.03189             14.09231
815.40339   935.30847   295.00000  20.65873             18.51594
813.54067   1773.88995  209.00000  21.23298             12.58626
817.46396   852.27477   222.00000  24.70506             11.63710
821.17801   1207.71990  382.00000  29.64032             18.01404
821.06593   465.52198   182.00000  15.81940             14.91363
817.11765   1040.04412  68.00000   9.54284              9.06054
821.43379   1092.59361  219.00000  18.78081             15.13358
823.26871   338.43197   294.00000  21.41090             17.91943
822.09132   717.33790   219.00000  20.85674             13.61991
822.61842   918.13816   152.00000  18.66479             10.39438
822.68775   1749.21344  253.00000  19.96749             16.17367
822.23121   1831.51445  173.00000  16.38304             13.45633
826.77198   759.07967   364.00000  24.18394             20.00784
823.87943   887.44681   141.00000  15.10893             11.87207
826.79126   442.09709   206.00000  17.45859             15.42096
824.20000   1060.33333  30.00000   6.31749              6.05020
834.96319   396.08589   163.00000  17.19707             12.11695
832.39130   1523.97826  92.00000   11.67093             10.01441
834.51145   866.35115   131.00000  15.60992             10.97136
836.14894   1872.94149  188.00000  20.91771             11.75266
837.15254   1658.38559  236.00000  23.01902             13.21724
840.41818   417.15909   220.00000  19.42073             14.65468
845.02768   784.51211   289.00000  24.43069             15.30176
843.35200   1761.01600  250.00000  19.80172             16.24664
842.12613   368.40991   222.00000  19.32723             14.64849
845.68468   383.72973   222.00000  22.06365             13.86497
844.51556   37.49778    225.00000  22.42655             12.86016
847.65965   1177.16140  285.00000  24.76214             15.04255
851.66197   1681.07394  284.00000  24.28962             14.93412
853.28135   59.90214    327.00000  24.07925             17.37391
855.19588   927.60825   194.00000  20.73015             12.00068
855.24569   1747.79741  232.00000  18.81122             15.89508
859.46018   1195.96018  226.00000  20.94309             14.05771
858.93182   892.32955   176.00000  16.18605             14.03307
868.60743   823.26525   377.00000  31.59505             16.50679
870.59231   1620.25385  260.00000  23.75001             14.15955
867.82540   1138.09524  63.00000   9.90079              8.13431
875.08517   900.50158   317.00000  22.63597             19.23231
877.47368   392.77632   228.00000  18.71117             15.58091
872.31818   927.36364   22.00000   6.71148              4.17160
887.00769   1134.73462  260.00000  25.23939             13.22232
890.24476   1874.59441  286.00000  22.05255             16.68958
889.72043   688.11828   93.00000   12.25157             10.00618
891.78505   333.34579   107.00000  12.77599             10.70724
897.67442   732.91731   387.00000  28.16614             17.72093
891.00000   1157.50000  26.00000   6.20174              5.20355
898.15217   176.81884   138.00000  14.39265             12.26575
901.80153   273.67176   131.00000  15.05620             11.14900
913.41609   791.63678   435.00000  29.79477             19.48220
908.21659   190.87558   217.00000  19.72394             14.05766
906.99083   314.64220   218.00000  18.56314             14.99856
915.82818   1105.92440  291.00000  22.38194             17.17457
924.53774   707.14151   212.00000  18.31796             14.83098
925.15789   894.96842   190.00000  20.63135             11.91708
928.79008   1061.96947  262.00000  20.85318             16.51177
932.17483   689.21678   143.00000  15.71716             11.71735
936.29386   887.44298   228.00000  19.76536             15.40228
942.37500   661.41935   248.00000  22.28730             14.62939
940.98230   868.71239   226.00000  22.24467             13.09144
945.96977   836.38605   430.00000  29.19903             19.10494
940.36095   1924.07101  169.00000  16.19431             13.76060
944.11765   678.73262   187.00000  18.94671             12.62369
938.39130   1052.56522  23.00000   6.10337              4.83335
955.62000   1882.89600  250.00000  18.69304             17.08773
954.43333   968.25556   90.00000   12.28614             9.35363
958.93455   1022.80000  275.00000  26.87203             13.29416
958.55978   789.30435   184.00000  17.49798             13.56221
966.01068   876.61922   281.00000  23.63050             15.66612
968.60300   774.24719   267.00000  28.28301             12.39257
977.51373   1884.70588  255.00000  20.90668             15.57985
978.07207   990.28829   111.00000  12.17683             11.63740
985.48750   973.50417   240.00000  18.31784             16.73482
988.44569   649.76404   267.00000  22.89833             15.45569
992.06584   988.60082   243.00000  20.09556             15.88858
993.00755   1033.41887  265.00000  21.72052             15.62314
998.66529   732.45041   242.00000  19.03410             17.17590
995.73171   1270.88415  164.00000  17.28504             12.14776
1000.82126  874.75362   207.00000  21.42796             13.03573
997.38816   1942.96053  152.00000  18.34784             11.11543
999.62348   629.54251   247.00000  22.19903             14.18841
1005.25414  861.88950   181.00000  19.76348             11.73366
1001.69072  962.44330   97.00000   14.11339             8.90809
1001.45205  970.90411   73.00000   10.73809             8.71245
1009.95820  1110.72347  311.00000  30.96815             13.06840
1010.54444  1229.51111  180.00000  20.62768             11.34796
1012.05455  728.32727   165.00000  16.61160             12.92647
1016.19304  1051.93038  316.00000  29.30044             14.11706
1018.73616  617.34202   307.00000  23.81412             16.64067
1020.72028  1209.46154  286.00000  24.98315             14.90272
1028.75203  1169.59756  246.00000  19.02088             16.84062
1027.49201  1112.66134  313.00000  26.09836             15.55588
1035.06178  877.06950   259.00000  22.55567             15.46647
1032.86408  1153.97087  103.00000  14.48352             9.11288
1046.77670  865.09709   309.00000  26.93805             15.04668
1049.23460  715.08504   341.00000  23.35039             19.10038
1046.16800  1150.48000  125.00000  15.53012             10.38409
1051.27273  980.64463   121.00000  16.36520             9.67801
1080.73832  878.98131   321.00000  25.62511             16.54212
1090.01708  911.37761   527.00000  32.78127             21.40257
1093.84211  1000.67183  323.00000  24.76207             16.68502
1104.20853  658.64455   211.00000  19.17462             14.03737
1105.04865  1013.03243  185.00000  20.33147             11.71479
1109.21344  1634.43874  253.00000  23.13826             14.14347
1129.33117  924.92208   308.00000  24.78957             16.48422
1126.41528  1647.72757  301.00000  29.96757             12.85356
1134.83886  848.74171   422.00000  31.53932             17.12615
1129.70388  1576.92718  206.00000  16.81678             15.64595
1136.57711  1008.61692  201.00000  18.82722             13.58840
1144.46696  1024.37004  227.00000  18.27532             16.19914
1146.05714  937.80000   210.00000  20.05206             13.64459
1147.05424  1511.98644  295.00000  23.03338             16.53890
1150.83544  918.06329   79.00000   11.39318             8.82614
1157.69822  954.30178   169.00000  17.10017             12.96177
1163.39086  1486.69543  197.00000  18.53583             13.57913
1166.86822  941.41860   129.00000  13.44588             12.20254
1170.60305  873.99237   131.00000  17.85862             9.65423
1174.34272  863.18310   213.00000  18.13622             15.25757
1181.34185  1454.25559  313.00000  23.34768             17.19526
1192.77885  1043.43590  312.00000  28.55291             15.77522
1188.98990  939.45455   99.00000   13.21369             9.59114
1195.36735  894.83163   196.00000  18.10595             13.89503
1199.06827  965.69478   249.00000  20.73593             15.64074
1204.29070  844.03876   258.00000  25.60527             13.45859
1213.74892  812.41991   231.00000  20.76577             14.41982
1213.00637  983.95541   157.00000  18.71711             10.79781
1210.43421  1436.51316  76.00000   10.88966             8.87789
1216.55238  942.64286   210.00000  20.68003             13.12520
1220.39487  1559.48205  195.00000  21.07583             11.86490
1221.75460  868.09509   326.00000  34.51361             13.37325
1228.20707  882.97980   198.00000  17.09760             14.82250
1232.05914  1045.38710  186.00000  19.99630             12.13615
1233.38235  989.33193   238.00000  20.42464             15.71519
1234.56489  910.92748   262.00000  26.22296             12.96350
1243.80503  1379.99371  159.00000  15.13946             13.48931
1250.68421  902.97193   285.00000  25.07857             14.75215
1252.40556  1370.77222  180.00000  16.60430             14.42652
1260.01880  924.91729   266.00000  27.01579             13.53420
1261.63303  954.80122   327.00000  24.19959             17.67589
1259.35135  805.29730   37.00000   7.65659              6.18963
1269.13764  1022.70787  356.00000  27.64502             16.58939
1262.84337  1530.39759  83.00000   12.34726             8.60355
1268.89189  1082.01622  185.00000  21.17391             11.42371
1265.42105  1742.84211  76.00000   10.22544             9.46988
1272.39303  1504.01990  201.00000  17.02601             15.19934
1279.07343  1344.93706  286.00000  24.95835             14.60653
1276.77907  1480.69767  86.00000   10.77230             10.25456
1281.90941  1594.11498  287.00000  21.90933             16.72989
1283.27692  1081.69231  130.00000  14.53534             11.43869
1291.66820  897.24424   217.00000  24.03901             11.58657
1287.11765  1576.28235  85.00000   11.99102             9.06127
1290.76522  1523.66957  115.00000  13.12190             11.18091
1295.21875  1793.26562  64.00000   10.27373             8.01910
1305.82687  953.74925   335.00000  24.53807             18.30302
1301.64103  1497.21795  78.00000   10.26392             9.68924
1305.91444  1302.97326  187.00000  15.90318             14.97691
1314.12810  907.43802   242.00000  20.40509             15.80258
1314.69444  1677.87963  108.00000  13.79926             9.98532
1314.56000  1526.54000  50.00000   8.47297              7.55551
1323.26818  825.51364   220.00000  18.72480             15.12887
1321.90840  1517.22901  131.00000  13.79916             12.10132
1330.41935  1467.09677  62.00000   9.84481              7.98305
1340.60400  894.60800   250.00000  21.20931             15.15934
1337.34667  1672.58667  150.00000  15.51414             12.33268
1347.83293  1266.82082  413.00000  26.22597             20.20172
1341.21739  1523.26087  46.00000   8.03859              7.29303
1350.46581  825.46154   234.00000  22.22932             13.71640
1357.58333  1184.26136  264.00000  22.74421             14.86443
1360.13360  886.89474   247.00000  22.62269             14.27357
1371.15333  819.04667   150.00000  23.24363             8.51134
1373.03704  827.45679   162.00000  21.28551             9.90130
1374.65873  863.18254   252.00000  21.80482             14.83436
1374.19580  1618.09790  143.00000  16.40139             11.15891
1375.55238  1651.27619  210.00000  22.75518             12.06902
1374.85841  1703.46018  113.00000  13.92568             10.36135
1376.62025  1587.59494  79.00000   10.98480             9.15530
1381.95283  1498.89151  212.00000  20.58806             13.41859
1376.04878  1757.19512  41.00000   7.64027              6.97756
1385.05298  1225.08609  151.00000  15.36198             12.70885
1390.51964  898.01511   331.00000  23.12497             18.93683
1389.59639  1568.91566  166.00000  17.25225             12.28874
1392.88312  791.05195   154.00000  16.59394             11.89195
1394.07522  850.04867   226.00000  22.75077             13.29614
1396.54138  927.13793   290.00000  20.49117             18.26097
1398.31250  1018.66071  224.00000  20.50726             14.50289
1392.94186  1487.18605  86.00000   12.53639             8.72304
1393.96386  1585.21687  83.00000   11.09387             9.52402
1399.25000  1700.46429  56.00000   9.75064              7.32250
1409.24103  806.96923   195.00000  18.93639             13.32270
1415.17593  1142.60648  216.00000  23.11383             12.30027
1416.10471  910.03665   191.00000  19.06623             12.88244
1414.41497  1473.79592  147.00000  15.37048             12.28683
1420.28333  995.77667   300.00000  25.82318             16.22798
1421.82482  921.96350   137.00000  15.34896             11.47448
1425.20536  943.92857   224.00000  18.59267             15.42676
1430.84000  1326.05333  225.00000  20.09652             14.33113
1433.83793  1113.21379  290.00000  26.27863             14.63791
1432.48035  859.97380   229.00000  19.83318             14.86619
1438.37931  1791.87931  174.00000  18.91204             11.89154
1442.15130  977.11820   423.00000  27.50697             19.84231
1442.61132  1102.58491  265.00000  20.70597             16.46925
1439.47191  1756.89888  89.00000   10.90771             10.42429
1445.19444  1510.62500  72.00000   10.40784             8.85311
1457.58580  1118.92604  338.00000  35.64326             13.71748
1454.32895  1057.60526  304.00000  27.32966             14.23939
1449.56579  1484.31579  76.00000   10.89523             8.86434
1451.33094  1559.93525  139.00000  16.92109             10.55448
1453.29032  1013.11828  186.00000  16.04523             14.78410
1458.44628  885.25207   242.00000  18.54220             17.48340
1457.03093  1529.68041  97.00000   12.04002             10.31598
1461.51220  983.07317   287.00000  24.16500             15.36115
1465.67431  1616.84404  218.00000  20.81279             13.35637
1469.45833  1377.00521  192.00000  19.07865             12.86701
1469.75758  1590.07879  165.00000  18.15754             11.71081
1472.57353  1087.97059  204.00000  16.77779             15.55929
1470.96000  1141.06000  50.00000   8.98540              7.02990
1476.47688  936.51445   346.00000  25.61526             17.39801
1480.88618  894.11382   369.00000  23.38764             20.31052
1493.55245  1094.44755  286.00000  33.46718             11.84160
1484.32877  867.97260   73.00000   10.74879             8.71993
1489.04054  1384.31532  222.00000  19.94546             14.29872
1491.94932  828.17905   296.00000  26.61345             14.41592
1496.30816  1137.52568  331.00000  26.93362             16.24879
1494.52727  1080.93939  165.00000  16.62574             12.98947
1495.48718  1106.51282  156.00000  16.48713             12.06670
1495.27119  1416.89831  118.00000  15.56868             9.74607
1498.27397  1339.36530  219.00000  18.12900             15.46077
1502.13077  1396.83846  130.00000  14.00445             11.83929
1510.13918  1166.17784  388.00000  30.36649             16.48207
1514.47518  1413.05674  282.00000  30.97001             11.94444
1510.56818  1456.31364  220.00000  17.88612             15.87801
1514.09045  1118.33166  199.00000  17.88825             14.26416
1511.35106  1687.71277  94.00000   13.26781             9.08078
1513.54783  1700.58261  115.00000  13.13662             11.32661
1515.63636  1485.85714  77.00000   11.61899             8.44915
1519.35981  760.70093   214.00000  19.19223             14.28569
1526.83051  1378.25424  177.00000  15.65897             14.54365
1534.06189  732.00326   307.00000  22.70143             17.54503
1531.84395  1102.07643  314.00000  24.16175             16.82073
1536.80259  759.09385   309.00000  28.50562             13.87595
1539.26101  1458.84277  318.00000  29.00978             14.48368
1531.17172  1746.31313  99.00000   12.09045             10.49014
1541.65753  1375.15068  146.00000  18.32268             10.23618
1542.55215  716.16564   163.00000  16.46697             12.78181
1553.78146  1366.81126  302.00000  27.77998             15.13466
1547.66667  917.78404   213.00000  20.41807             13.45331
1547.60674  1110.06742  178.00000  19.09012             12.02749
1558.64400  1386.18000  250.00000  19.74311             16.34379
1560.22337  1422.29210  291.00000  24.00849             15.51010
1553.85294  1522.98529  68.00000   9.45491              9.14696
1558.91473  948.53488   129.00000  16.68650             10.34739
1561.26415  1300.67925  212.00000  19.07839             14.65218
1561.83972  651.86760   287.00000  21.88352             16.87756
1564.29462  893.67139   353.00000  25.72026             17.80243
1565.47222  1480.10648  216.00000  20.89670             13.29247
1565.41732  958.71654   254.00000  19.07765             17.03270
1568.11111  673.29259   270.00000  23.63105             14.79760
1573.42353  1286.24706  255.00000  20.65587             16.10500
1577.96784  1212.76316  342.00000  27.98186             16.07026
1577.18992  1313.69380  258.00000  22.66052             14.75869
1578.54118  925.88627   255.00000  19.71425             16.53021
1577.75676  1236.98311  296.00000  24.64414             15.97249
1575.30108  1523.18280  93.00000   11.68006             10.14730
1578.00000  1418.50467  107.00000  12.91400             10.55800
1579.48333  794.16111   180.00000  16.25782             14.41517
1582.33641  944.34101   217.00000  18.37307             15.29535
1580.67797  977.81356   59.00000   10.10868             7.42003
1584.32512  1406.72414  203.00000  18.32833             14.10729
1584.97315  1478.32215  149.00000  15.35446             12.39579
1586.28191  882.88298   188.00000  16.18826             14.87045
1585.47917  864.43750   144.00000  15.29591             12.02631
1586.47368  1683.31579  76.00000   11.55749             8.37143
1590.73885  756.96178   157.00000  17.34955             11.59150
1591.47393  848.06161   211.00000  19.04628             14.33757
1590.99153  937.85593   118.00000  16.01898             9.86046
1592.83871  1443.72581  186.00000  18.17775             13.23704
1597.15129  1424.46125  271.00000  22.14425             15.69174
1595.13235  1365.96569  204.00000  18.98025             13.72845
1599.69613  832.99724   362.00000  23.18408             19.94534
1600.35345  966.39224   232.00000  20.09013             14.92493
1603.33195  1091.22822  241.00000  19.62472             15.75513
1608.18809  1297.84013  319.00000  29.77824             14.09704
1607.87912  1349.14286  91.00000   12.72010             9.17302
1616.00000  978.65574   244.00000  23.04849             13.67487
1613.99390  961.77439   164.00000  18.69516             11.64172
1614.17222  1235.17778  180.00000  16.76194             13.69231
1616.82018  1464.57895  228.00000  18.49167             15.84693
1616.49689  1713.45963  161.00000  14.96637             13.78563
1618.23864  854.28409   176.00000  16.47914             13.64014
1621.60494  1271.25617  324.00000  31.23554             13.50642
1620.85714  809.15625   224.00000  23.44463             12.31100
1619.11189  823.68531   143.00000  15.42335             11.86875
1621.35169  1351.12288  236.00000  22.41930             13.74224
1623.32727  835.83636   220.00000  18.30784             15.41159
1623.27219  631.91716   169.00000  15.40782             14.10954
1624.96685  1419.57459  181.00000  17.58149             13.17373
1629.89756  1323.83415  205.00000  16.98729             15.43877
1633.64516  973.55300   217.00000  17.77309             15.69563
1633.75159  1466.57962  157.00000  14.24900             14.11616
1631.41304  963.08696   46.00000   8.37178              7.01068
1639.23967  1371.73967  242.00000  21.69560             14.45284
1639.18902  816.39024   164.00000  17.55583             12.08523
1642.40625  993.19271   192.00000  16.86974             14.56916
1641.26380  1427.85276  163.00000  15.82095             13.41061
1644.52941  784.58289   187.00000  16.89227             14.17097
1646.81218  1407.86802  197.00000  17.62944             14.52022
1645.29474  969.64211   95.00000   15.59111             7.83273
1651.96825  794.87831   189.00000  18.18538             13.96449
1651.91209  1771.12088  182.00000  16.48146             14.17023
1654.49254  1330.57463  134.00000  16.59397             10.36703
1651.87234  972.48936   47.00000   9.27253              6.50795
1655.67969  773.87500   128.00000  15.48219             10.53733
1654.07576  1009.48485  66.00000   10.60851             7.92199
1657.58491  984.35849   106.00000  13.09676             10.37965
1659.53191  965.78723   47.00000   8.52493              7.00379
1662.23596  1004.17978  89.00000   12.60764             9.08383
1666.47635  1420.79730  296.00000  23.36359             16.37617
1671.18229  1285.65625  384.00000  32.44234             15.35922
1666.10995  1368.63874  191.00000  18.44541             13.21662
1667.90541  1325.57432  148.00000  14.00825             13.52364
1669.29167  774.02778   216.00000  18.65277             14.80606
1678.03226  1005.83871  62.00000   11.63240             6.89059
1691.70441  991.11516   521.00000  30.52830             23.17326
1685.22222  760.98485   198.00000  19.25913             13.15368
1689.85222  729.11823   203.00000  18.66428             13.89892
1694.37931  1313.00000  232.00000  21.65716             13.79567
1697.41818  1008.18182  165.00000  16.35470             12.88586
1701.68063  1346.85340  191.00000  19.76553             12.49492
1703.28400  1533.62800  250.00000  21.45191             15.04948
1704.21951  1499.87195  164.00000  16.04814             13.16535
1706.93252  722.68098   163.00000  16.44621             12.61871
1712.75519  1392.17012  241.00000  23.32511             13.27316
1711.16568  1361.91716  169.00000  16.46056             13.17804
1714.11328  1019.51562  256.00000  21.70947             15.05995
1709.30612  1032.67347  49.00000   9.54370              6.57129
1720.72727  1465.73684  209.00000  19.13201             14.27726
1723.12281  1534.12281  285.00000  27.27966             13.40270
1723.68056  1029.63889  72.00000   11.54899             7.94506
1722.73118  1432.21505  93.00000   12.07881             9.88492
1727.72358  1648.70732  246.00000  19.30330             16.32024
1729.81887  1487.14717  265.00000  22.62905             15.06582
1730.60793  698.46696   227.00000  19.99463             14.54304
1731.70136  1326.88235  221.00000  18.91516             15.35192
1732.67164  1354.90050  201.00000  20.65083             12.53206
1735.21569  1284.47712  153.00000  16.67180             11.71409
1734.76106  1432.76106  226.00000  17.83047             16.23172
1739.65217  1257.14203  345.00000  23.89003             18.80347
1737.39791  1031.63874  191.00000  16.10005             15.20400
1743.71429  1005.46531  245.00000  25.63660             12.34350
1737.70166  1463.81768  181.00000  15.57974             14.85103
1741.98544  1017.63107  206.00000  21.30630             12.65587
1743.54851  1388.95149  268.00000  24.12881             14.29936
1745.18545  1562.93455  275.00000  25.08484             14.03402
1744.51429  679.41429   210.00000  16.56731             16.13496
1752.41711  1039.15508  187.00000  17.18225             13.92868
1753.40994  1316.19876  161.00000  15.43236             13.31556
1760.85093  1404.21118  161.00000  15.33759             13.44184
1761.27358  1057.39623  106.00000  17.07529             7.96977
1765.54545  1017.68687  198.00000  20.26501             12.51303
1768.32456  1502.34795  342.00000  29.11647             15.42158
1773.62273  654.13636   220.00000  18.21452             15.49141
1774.12179  1608.01282  156.00000  15.60822             12.73557
1777.65957  1305.59220  282.00000  21.94447             16.44408
1777.65789  1069.14474  76.00000   13.21681             7.32355
1784.22408  1348.62207  299.00000  22.77243             16.91885
1779.98765  1015.54321  81.00000   12.28574             8.44393
1784.78431  1277.65686  204.00000  21.39021             12.19077
1787.09589  1551.58447  219.00000  18.83835             14.92436
1782.22581  1063.00000  31.00000   6.66169              5.98652
1787.75845  1321.31884  207.00000  19.56868             13.56518
1788.82941  1704.51176  170.00000  16.92831             12.85484
1792.63731  1415.05181  193.00000  17.70846             13.97383
1794.60000  1601.55918  245.00000  22.16791             14.17875
1791.62821  1024.85897  78.00000   12.26923             8.12483
1797.23494  655.56024   166.00000  19.72517             10.81723
1804.49580  1040.28571  238.00000  19.02665             16.09033
1803.48739  1314.42017  119.00000  12.63546             12.01283
1809.74641  1558.29187  209.00000  22.80941             11.70855
1812.86957  1080.25217  230.00000  18.40928             15.99946
1813.43411  1280.96124  129.00000  14.67657             11.27978
1814.24561  1357.76023  171.00000  15.78261             13.85201
1817.89143  640.92000   175.00000  17.09278             13.15327
1815.56338  1323.45070  71.00000   10.87684             8.35900
1815.93578  1441.19266  109.00000  14.14224             10.45733
1818.40506  1613.46835  237.00000  20.57437             14.96646
1823.97159  1961.99432  176.00000  18.86411             11.95237
1832.20463  1067.20849  259.00000  28.39118             11.95309
1832.71384  1396.29560  318.00000  23.17615             17.65303
1836.89593  1586.08145  221.00000  22.62603             12.50522
1833.33645  1880.47664  107.00000  14.05884             10.08961
1836.89922  636.79070   129.00000  13.69332             12.03233
1840.00505  1341.41919  198.00000  20.36800             13.60144
1854.30717  623.21843   293.00000  28.39547             13.20040
1847.45528  1239.86179  246.00000  21.44081             14.92375
1850.86705  1434.60983  346.00000  27.65180             17.07821
1851.20984  1466.01639  305.00000  27.97584             14.03746
1856.02273  1258.26515  264.00000  27.99745             12.16966
1860.94958  514.75630   238.00000  20.03759             15.20477
1863.28475  1327.99661  295.00000  21.65996             17.43257
1866.76427  1096.38958  403.00000  29.95214             17.62016
1863.73575  1371.63731  193.00000  22.05948             11.23381
1865.00966  1115.55556  207.00000  19.25886             13.72335
1866.80798  1186.72818  401.00000  31.10853             16.66879
1870.34848  1454.95455  198.00000  16.79485             15.01775
1878.92053  1230.21854  151.00000  15.85825             12.29850
1878.62774  642.85401   137.00000  15.33861             11.43982
1886.46748  523.51626   246.00000  19.17702             16.52866
1894.83784  631.98198   222.00000  19.56547             14.61243
1894.36434  1104.25194  258.00000  18.91959             17.43634
1895.35798  1268.42802  257.00000  19.82800             16.61656
1894.20958  1337.92216  167.00000  15.61973             13.76328
1896.94403  1240.32090  268.00000  22.41353             15.35243
1896.36464  1325.06077  181.00000  16.84746             13.79683
1894.39286  1281.65476  84.00000   11.64028             9.37747
1902.40678  1291.68644  236.00000  18.43675             16.36453
1906.55466  1128.59514  247.00000  23.45692             13.53573
1907.13768  1369.73188  276.00000  21.35308             16.72232
1906.12429  1257.11299  177.00000  15.25920             14.78181
1910.26695  509.42797   236.00000  20.99418             14.35344
1909.60606  1442.37121  132.00000  15.01315             11.33950
1926.35581  487.08240   267.00000  19.86403             17.23482
1927.13300  1109.10837  203.00000  19.27911             13.51455
1927.43145  1201.80242  248.00000  18.92587             16.91006
1927.27184  1425.56311  206.00000  16.60226             15.82589
1925.74257  1440.62376  101.00000  12.67382             10.14009
1929.15873  1358.41799  189.00000  19.41793             12.49845
1933.44318  1373.28788  264.00000  22.68388             15.18982
1934.03125  1396.08929  224.00000  20.95994             13.65003
1933.29496  1123.96403  139.00000  14.45311             12.28428
1938.66304  1159.86413  184.00000  15.99589             14.65612
1939.84940  1478.62651  166.00000  16.57693             12.82725
1938.34211  1339.46491  114.00000  12.51895             11.80757
1941.42537  1230.38060  134.00000  14.71735             11.63789
1943.31034  1192.69951  203.00000  16.33963             16.09030
1953.89000  1313.28500  200.00000  18.93169             13.49436
1961.81081  1153.65465  333.00000  24.16684             17.86585
1961.24904  1343.94253  261.00000  21.45514             15.56089
1963.48413  1132.34921  252.00000  24.90266             12.98341
1964.86611  1422.51464  239.00000  25.78799             11.83901
1958.85263  1168.83158  95.00000   11.39736             10.62241
1967.74900  1213.31076  251.00000  19.72723             16.31159
1970.94942  1323.27237  257.00000  20.96473             15.72822
1970.23868  1596.73663  243.00000  19.09755             16.29395
1975.50607  1458.41296  247.00000  20.37559             15.45743
1977.07391  1033.17391  230.00000  20.78971             14.31506
1977.38202  504.26966   178.00000  17.21849             13.57718
1978.03546  1266.08156  282.00000  20.02508             17.98514
1982.41053  1178.58596  285.00000  21.16698             17.23869
1976.98718  1243.94872  78.00000   10.46366             9.66121
1985.10127  1280.27848  158.00000  19.52536             10.58964
1992.57934  1317.39114  271.00000  19.49655             17.85614
1991.25197  1243.00787  127.00000  14.44296             11.20840
1998.94118  1470.89216  102.00000  14.80711             8.94198
2001.63694  1378.80892  157.00000  15.87474             12.68029
2001.56780  1517.03390  118.00000  12.99594             11.59325
2007.85802  1420.69136  162.00000  14.94009             14.14681
2012.44000  1442.17333  150.00000  15.71229             12.21143
2014.48325  1294.10048  209.00000  17.40016             15.39081
2022.55191  1262.03825  183.00000  18.86060             12.38867
2021.43421  1338.54605  152.00000  15.86596             12.21560
2024.47845  453.31897   232.00000  19.33137             15.38386
2029.86066  1308.52049  244.00000  18.74736             16.60405