# Filename: Nuclei_bidi_pfa_004.npz
# Voxel size (nm): (108, 108)
# Area quantity: voxels
# Num nuclei detected: 1861
Y           X           AREA       MAJOR_AXIS_LENGTH    MINOR_AXIS_LENGTH
43.76724    1023.17672  232.00000  18.89002             15.94627
70.79032    1022.00000  248.00000  20.68691             15.38725
105.87709   1012.17877  179.00000  15.93217             14.44328
129.02198   1036.59890  182.00000  18.02475             12.96484
168.20675   561.22363   237.00000  20.70975             14.68666
170.11429   1086.36190  210.00000  18.17027             14.78330
171.27881   1107.25651  269.00000  21.02537             16.34053
175.16232   1065.68116  345.00000  27.49066             16.17050
196.85167   524.32536   209.00000  17.39393             15.32108
220.20290   691.54348   138.00000  15.37470             11.46523
222.89615   488.16923   260.00000  19.96977             16.65280
230.42564   578.00000   390.00000  27.32907             18.33276
227.99219   446.70312   256.00000  19.56373             16.68755
228.41420   597.54438   169.00000  16.65781             12.99617
229.69565   415.79348   184.00000  15.98076             14.74474
233.44762   1337.64762  105.00000  12.60247             10.80143
235.68182   736.54545   110.00000  12.27939             11.62130
241.11947   776.34513   226.00000  20.19198             14.32829
241.19203   390.19565   276.00000  19.57141             18.11847
244.12102   1750.31847  157.00000  14.99805             13.40610
245.13014   1179.80137  146.00000  15.43933             12.08470
248.07265   1116.50427  234.00000  17.99629             16.68965
257.33790   1159.22831  219.00000  22.88199             13.48500
253.94652   1719.02139  187.00000  20.11481             11.86935
256.82927   1372.30081  123.00000  13.86522             11.39052
257.74051   1223.60759  158.00000  16.12330             12.74847
257.98058   1170.57282  103.00000  12.75124             10.44610
262.49545   353.62273   220.00000  19.39913             14.70237
264.70531   1467.76329  207.00000  17.44558             15.14866
266.00000   1320.75956  183.00000  16.74773             13.92990
266.15385   1497.60633  221.00000  17.80465             15.97483
277.35714   344.93367   196.00000  18.17886             13.82358
277.83432   1771.73964  169.00000  18.74340             11.52570
278.16667   1278.04545  198.00000  17.88030             14.21832
278.50971   1510.18932  206.00000  19.39487             13.56187
278.70325   505.14634   246.00000  21.53332             14.70120
288.85827   1244.02756  254.00000  19.98060             16.28490
293.46792   1464.10943  265.00000  26.81922             13.30259
292.85106   463.76596   94.00000   12.41217             9.77754
297.70849   1148.32103  271.00000  25.10521             14.03804
299.11798   1281.04494  178.00000  18.95464             12.03437
304.09848   449.39394   264.00000  22.95506             14.95051
308.33333   1545.67879  165.00000  16.53362             12.78489
310.46063   529.50394   254.00000  19.62858             16.56913
314.77477   410.46847   333.00000  22.86808             19.08558
311.15179   1533.68750  112.00000  13.57848             10.51432
314.92308   1707.23776  143.00000  16.10824             11.35817
317.06061   1459.50000  132.00000  13.78412             12.18544
320.58525   495.27650   217.00000  18.21405             15.23687
319.45255   1584.72263  137.00000  13.65806             12.80570
324.83133   464.66265   249.00000  18.53112             17.14831
324.38415   1781.98780  164.00000  15.19226             13.80359
328.74503   1235.55298  302.00000  26.06935             15.10468
329.15068   1290.36073  219.00000  18.55970             15.14545
328.66667   1424.34426  183.00000  16.75214             13.98899
330.08780   1533.27805  205.00000  20.48766             12.80730
329.17500   1722.77500  160.00000  16.38172             12.51956
332.23171   1139.47967  246.00000  21.79656             14.48673
334.20611   509.83969   262.00000  20.34507             16.44824
332.42541   1205.94475  181.00000  16.59938             13.95383
333.83529   1817.46471  170.00000  18.87827             11.72646
337.69254   805.81194   335.00000  22.46358             19.05613
336.38776   602.83265   245.00000  19.11367             16.56976
334.95349   1627.84884  86.00000   11.51769             9.54614
339.20792   321.76733   202.00000  16.48689             15.69419
337.86034   1336.10615  179.00000  16.08886             14.25887
338.50898   1598.00599  167.00000  16.18730             13.57633
339.62871   1454.60396  202.00000  17.66806             14.65767
341.50292   1576.10526  171.00000  17.60540             12.44126
343.33649   1502.08057  211.00000  18.33753             14.85537
346.29020   626.19608   255.00000  21.98018             14.92226
347.59690   1361.98450  129.00000  14.95855             11.28603
349.12209   1215.48837  172.00000  16.97281             12.99944
350.54217   844.32932   249.00000  20.13460             15.76888
350.74860   1155.32402  179.00000  16.41621             13.91419
356.30928   637.14089   291.00000  21.75171             17.32362
356.59906   369.91509   212.00000  19.31575             14.08824
353.92500   1375.44375  160.00000  15.66612             12.99354
355.65909   436.65909   220.00000  23.23848             12.22663
358.70800   1105.28000  250.00000  20.88488             15.96156
356.29012   1782.51852  162.00000  15.71444             13.19748
356.97887   681.98592   142.00000  15.07541             12.13958
364.23887   424.07287   247.00000  20.42115             15.51031
364.89641   716.12351   251.00000  23.14189             13.93230
360.52727   1631.23636  110.00000  12.98133             10.81906
363.78235   1128.89412  170.00000  16.22495             13.35848
366.28448   1400.90517  232.00000  23.89705             12.46413
365.46269   596.04851   268.00000  20.47958             16.72219
365.22059   1365.18137  204.00000  24.95108             11.25730
366.43860   399.21491   228.00000  18.62948             15.63406
364.75168   674.51678   149.00000  16.24669             11.71904
366.45714   1802.79429  175.00000  18.46794             12.10856
366.55556   340.52525   198.00000  17.51686             14.41411
368.45064   384.27039   233.00000  19.55118             15.57185
367.80741   812.28519   270.00000  20.48819             16.97664
373.15012   780.14528   413.00000  27.86799             19.67420
370.84279   761.96507   229.00000  20.48091             14.66108
369.49153   1078.83616  177.00000  16.22484             14.22446
374.32597   1313.09392  181.00000  22.52022             10.34187
371.98171   1091.11585  164.00000  15.42802             13.79996
373.87113   1039.81443  194.00000  20.18584             12.55928
373.81935   1501.27097  155.00000  15.33571             12.92846
376.55026   702.55556   189.00000  18.39620             13.11521
378.31330   303.26609   233.00000  19.24723             15.46502
383.38342   972.04663   193.00000  17.23216             14.33942
387.00735   323.74632   272.00000  23.64458             14.78345
382.61207   342.14655   116.00000  13.54345             11.24167
387.90800   353.46800   250.00000  18.62618             17.43610
389.41532   667.94355   248.00000  19.65047             16.22075
390.20940   558.07692   234.00000  17.84614             16.74242
391.37395   950.74790   238.00000  20.51328             15.41640
398.13846   1610.16923  325.00000  28.36041             15.75640
395.63158   421.19838   247.00000  19.91691             15.88818
396.68072   703.24699   166.00000  16.65226             12.74018
400.45545   386.65842   202.00000  19.12794             14.21844
398.24000   1511.78000  100.00000  12.75449             10.02931
400.70115   719.13218   174.00000  16.44263             13.52819
401.78804   980.75543   184.00000  18.08078             13.35538
402.57955   370.30114   176.00000  16.11043             13.95747
405.01117   1330.17318  179.00000  17.74417             13.00163
403.07051   1813.23718  156.00000  16.13639             12.36916
407.01361   1683.74150  147.00000  14.53952             12.91283
409.18935   1639.01183  169.00000  16.02570             13.44451
409.84685   244.60360   111.00000  12.50289             11.31669
414.18288   523.30350   257.00000  23.12779             14.31820
415.44737   1816.11184  152.00000  18.18983             10.72828
419.47978   360.73046   371.00000  30.05304             16.32953
417.70652   1426.66304  184.00000  16.64092             14.11960
422.65939   1654.85590  229.00000  23.07545             13.05308
424.11968   407.32979   376.00000  29.11071             16.71544
420.31214   749.35838   173.00000  17.04076             12.95652
424.32061   1459.55725  262.00000  21.24127             15.94924
421.52857   1670.51429  140.00000  14.20778             12.56559
425.51408   317.89789   284.00000  19.65121             18.67508
427.23438   435.41797   256.00000  19.72933             16.55345
428.55472   463.36226   265.00000  22.22496             15.26550
429.42748   1635.98855  262.00000  19.19237             17.48352
432.57958   273.77477   333.00000  25.55191             16.95465
430.58484   501.66065   277.00000  21.92755             16.16022
432.13734   1488.25322  233.00000  19.47168             15.64926
435.58919   288.43784   185.00000  20.68289             11.50354
440.23906   335.31987   297.00000  25.41836             15.03403
436.47170   194.20126   159.00000  15.02619             13.53842
443.27019   675.49379   322.00000  25.95329             16.11190
443.97826   1523.38043  276.00000  20.81082             17.14071
444.81977   1647.29070  172.00000  15.01703             14.74318
444.95758   1669.10909  165.00000  15.44927             13.70637
442.25333   92.25333    75.00000   14.27454             6.74467
449.31183   1454.34409  186.00000  17.26201             13.76894
448.07843   74.31373    102.00000  12.98301             10.28818
448.65385   437.89560   182.00000  15.83494             14.66994
452.93220   727.75593   295.00000  22.03818             17.30652
451.88936   1578.93191  235.00000  19.26594             15.60879
453.96078   464.93137   204.00000  16.93819             15.35647
457.20084   226.86192   239.00000  20.58259             14.86032
456.48246   350.99123   228.00000  22.62965             12.99250
460.48361   391.34973   366.00000  28.49926             17.11342
458.98065   321.23226   155.00000  15.55950             12.71120
465.59480   52.75093    269.00000  25.02178             14.40987
462.43333   508.28333   180.00000  16.71515             13.72602
464.14201   1548.09467  169.00000  23.43531             9.80765
461.59375   1731.02083  96.00000   12.10431             10.11623
465.72611   1097.75796  157.00000  16.41519             12.36376
472.47032   521.65753   219.00000  20.97129             13.40122
476.70168   1509.72689  238.00000  25.32931             12.06050
471.53476   1649.18182  187.00000  17.45658             13.82792
471.53933   348.02247   178.00000  16.41002             13.85737
475.51724   368.86782   174.00000  17.11881             13.19160
480.64977   696.38249   217.00000  18.21674             15.24467
478.18721   1553.84018  219.00000  21.14602             13.39613
478.78646   1637.75000  192.00000  16.23152             15.09607
481.31364   1688.66818  220.00000  18.12119             15.72710
482.43915   10.02646    189.00000  16.32817             15.28037
483.27437   395.83755   277.00000  19.62178             18.25813
480.87429   1092.62857  175.00000  15.45955             14.41287
482.20710   317.92899   169.00000  15.73441             14.02592
484.24365   1614.00508  197.00000  17.82899             14.17365
486.60648   1461.63426  216.00000  19.69865             14.24432
489.63052   1018.93173  249.00000  20.98319             15.19622
492.37079   737.43071   267.00000  21.63089             15.81116
489.83243   974.43243   185.00000  16.10910             14.70637
488.97826   1603.63043  92.00000   12.65229             9.42641
493.84337   1674.93574  249.00000  20.32485             15.68977
491.31325   1039.36145  166.00000  18.60900             11.37833
496.48472   699.34498   229.00000  17.96413             16.31172
499.94884   1470.34419  215.00000  19.90255             13.84625
502.80157   1069.11227  383.00000  25.90308             19.21461
499.24742   319.82474   194.00000  18.24915             13.66509
500.33808   1498.26335  281.00000  22.74215             15.87849
502.25532   341.40426   141.00000  18.00541             11.00767
503.67279   378.27941   272.00000  19.23067             18.23978
505.37441   1651.40758  211.00000  19.23261             13.99906
508.01376   491.94954   218.00000  26.06227             11.23799
507.18677   934.29183   257.00000  20.37569             16.26531
507.04950   393.89109   202.00000  18.18480             14.20134
509.88258   1091.73485  264.00000  20.96837             16.08727
506.25000   1716.16500  200.00000  18.82814             13.55823
511.94366   506.63380   213.00000  21.00477             12.94636
509.13139   791.54015   137.00000  14.71723             11.89272
511.69802   761.51485   202.00000  16.91278             15.33714
514.41921   715.53275   229.00000  19.06885             15.40472
509.75610   773.39024   41.00000   8.23143              6.42226
513.60000   1460.66061  165.00000  17.13072             12.33973
515.85502   356.62454   269.00000  23.94766             14.35112
517.13537   807.03493   229.00000  18.88491             15.51248
517.89247   1446.40860  186.00000  17.43047             13.67794
521.62264   887.43082   318.00000  25.12122             16.22804
519.27966   1907.13559  118.00000  14.97884             10.53746
522.08922   338.50186   269.00000  20.63413             16.66445
523.43668   1619.49782  229.00000  17.89735             16.37779
529.75833   401.58056   360.00000  31.37616             14.78920
525.39114   626.76015   271.00000  20.00284             17.42548
523.85185   1051.96914  162.00000  16.82409             12.44209
526.26923   755.44231   208.00000  19.60743             13.56569
524.71357   1734.70352  199.00000  17.65820             14.39715
530.22388   1675.37313  268.00000  21.33155             16.41517
531.19844   1526.25292  257.00000  24.26525             13.62946
529.93399   860.05611   303.00000  20.93437             19.63012
533.10256   737.24176   273.00000  22.05430             15.76030
532.21186   1072.03390  236.00000  19.76070             15.24373
534.23204   517.70166   181.00000  18.18524             12.88818
534.00000   791.78512   121.00000  14.23121             10.87754
533.12081   1121.69799  149.00000  17.46631             10.98749
534.67568   1634.31351  185.00000  16.30735             14.51350
536.86751   712.28707   317.00000  21.19904             19.23140
535.61272   847.12717   173.00000  16.95298             13.05464
538.03977   1705.25568  176.00000  15.77352             14.44542
539.21858   904.38251   183.00000  18.36151             12.90362
541.32287   301.97309   223.00000  17.39859             16.41952
541.67978   871.38764   178.00000  18.14904             12.52257
543.34653   127.42079   202.00000  18.91285             13.73314
542.84431   1117.19162  167.00000  16.82345             12.96965
544.80165   1655.20661  121.00000  12.86946             12.05251
551.23109   601.31933   238.00000  20.49187             14.93461
553.29010   795.79522   293.00000  22.09906             17.14473
554.78988   379.56420   257.00000  21.96973             15.21615
553.02315   659.04630   216.00000  17.83580             15.79934
554.43023   393.34884   172.00000  15.82853             13.88960
554.36723   168.09605   177.00000  19.32013             11.77271
556.04592   642.39286   196.00000  16.67931             15.08992
555.92188   1650.18750  128.00000  15.78642             10.70649
558.19024   618.98049   205.00000  18.34230             14.30229
558.69378   1024.37321  209.00000  19.57811             13.63475
557.03271   1707.21963  214.00000  18.25691             15.22752
559.56225   243.60241   249.00000  20.80138             15.32108
562.17647   689.43137   357.00000  26.97765             17.49917
560.83333   774.09524   210.00000  18.39035             14.57021
560.77108   750.95181   166.00000  17.05269             12.51091
561.72973   1495.60618  259.00000  18.63181             17.92221
563.08947   1736.80000  190.00000  17.61625             13.80978
562.88953   1048.25581  172.00000  18.96040             11.76931
563.91371   716.61929   197.00000  19.37648             13.05133
561.29412   1828.55294  85.00000   10.54920             10.26202
566.80328   291.01639   244.00000  20.82965             14.96205
566.51029   345.66667   243.00000  19.19831             16.26325
572.65891   521.46253   387.00000  33.88310             14.65168
568.45683   888.82014   278.00000  21.19822             16.84167
570.81788   1069.35099  302.00000  20.78149             18.84931
572.92784   270.57216   194.00000  17.26537             14.37093
574.15023   361.42254   213.00000  17.58574             15.64431
574.87826   617.92609   230.00000  19.63483             14.97683
577.81181   721.45387   271.00000  22.88325             16.67112
575.54839   1707.35484  186.00000  15.66538             15.19995
576.95860   205.15287   314.00000  24.73101             16.35595
575.97656   1728.65625  128.00000  13.74722             11.91593
584.12411   502.73404   282.00000  28.08755             12.81658
581.71765   744.27451   255.00000  21.05085             15.47762
582.63374   339.53086   243.00000  22.27943             13.91392
585.39924   1600.43726  263.00000  19.73947             17.03672
587.47980   728.78283   198.00000  20.97415             12.38159
585.09290   811.04372   183.00000  16.37433             14.44481
589.13027   425.10345   261.00000  24.54025             13.63790
586.64671   786.82036   167.00000  15.52316             13.73717
586.93007   798.46154   143.00000  16.01230             11.55502
589.68511   262.41277   235.00000  18.33355             16.35960
589.47573   324.41262   206.00000  20.43655             13.01838
590.51364   1006.50455  220.00000  18.35694             15.37535
593.88608   562.10127   237.00000  19.78739             15.31838
593.03902   992.71707   205.00000  17.92519             14.91036
594.59111   1084.01778  225.00000  19.26517             14.95489
593.80124   677.18012   161.00000  16.59372             12.45390
596.00000   757.63889   252.00000  22.29591             14.48084
598.29110   356.58904   292.00000  24.43348             15.27068
596.25773   770.88660   194.00000  17.83459             14.05142
597.04869   544.20974   267.00000  20.00038             17.21486
593.24590   668.13115   61.00000   10.59819             7.45762
599.97368   295.60965   228.00000  20.89232             13.93754
607.43917   1103.39169  337.00000  29.43242             15.55088
600.68254   1095.29365  126.00000  14.44969             11.15084
605.39184   639.11429   245.00000  18.35832             17.16655
607.45082   146.22131   244.00000  20.00454             15.59674
606.52000   781.74000   200.00000  17.32832             14.81896
608.12857   792.67857   140.00000  19.76058             9.64228
607.11494   677.70690   174.00000  18.41338             12.19971
607.82178   1252.03465  202.00000  16.99831             15.42132
608.10550   599.03670   218.00000  20.57540             13.73451
610.57447   1333.64894  188.00000  19.65002             12.19641
610.25610   1348.23577  246.00000  21.18694             14.92651
611.57826   897.29130   230.00000  18.21280             16.11113
613.00556   809.86111   180.00000  20.83116             11.12646
613.03704   1370.32099  243.00000  18.48048             16.78461
613.46800   503.40000   250.00000  20.15874             15.84452
616.52459   1629.34016  244.00000  21.53755             14.71848
617.06034   820.73276   116.00000  18.49132             8.19005
620.98008   683.17928   251.00000  21.05228             15.39318
617.85065   829.63636   154.00000  16.95781             11.73458
621.47788   908.05310   226.00000  18.65103             15.97834
621.60369   254.68203   217.00000  19.48777             14.33324
621.36842   1035.07656  209.00000  18.35416             14.62245
621.07285   802.29801   151.00000  16.29804             11.80387
623.09223   79.36408    206.00000  18.06562             14.59078
623.02073   542.14508   193.00000  20.00810             12.32696
623.73540   713.97938   291.00000  23.49707             16.05311
625.27011   1314.95977  174.00000  17.32551             12.84617
627.25311   635.18257   241.00000  19.16388             16.09466
627.12667   1283.30000  150.00000  15.87768             12.10024
628.35398   1001.49558  226.00000  18.06991             16.02666
632.96497   1046.78025  314.00000  26.27726             15.61234
631.38486   1194.87697  317.00000  23.59737             17.49908
631.75521   1272.18229  192.00000  22.59871             11.08940
630.47059   273.13445   238.00000  17.96367             17.01197
633.05943   976.63049   387.00000  24.59707             20.29241
630.31222   1372.86878  221.00000  18.55887             15.47834
630.84817   219.71728   191.00000  17.69823             13.81456
631.33178   949.84579   214.00000  17.84656             15.40342
629.98148   1078.46914  162.00000  15.50295             13.35492
636.70722   504.61977   263.00000  19.36010             17.95209
633.68868   1913.60377  106.00000  14.87568             9.53299
636.39548   621.36723   177.00000  16.89616             13.45029
636.27273   864.96818   220.00000  19.07687             14.84567
637.64706   798.71123   187.00000  17.66441             13.51329
642.58744   1459.06726  446.00000  33.89176             17.28828
640.90756   1388.43277  238.00000  21.90378             14.17236
642.60784   71.43137    204.00000  18.24657             14.44317
644.88538   238.15810   253.00000  20.37133             16.04204
644.55000   566.87083   240.00000  20.99617             14.63742
643.45614   787.09357   171.00000  17.58032             12.52931
645.62025   906.45148   237.00000  20.28334             15.08445
642.62658   1316.33544  158.00000  15.18531             13.42236
648.24887   454.23982   221.00000  21.83243             13.45293
648.65598   665.05831   343.00000  22.29878             19.69653
645.92373   258.75424   236.00000  23.81800             12.65110
648.54222   753.60444   225.00000  17.64021             16.45080
648.75087   1017.67474  289.00000  20.36682             18.56443
648.48945   1171.19831  237.00000  22.07731             13.76150
647.13793   741.77011   87.00000   11.08369             10.36138
650.64394   716.41288   264.00000  20.09767             17.07720
654.67391   735.95652   138.00000  16.21990             10.86921
656.13366   796.05941   202.00000  20.16757             12.79140
659.17708   961.61111   288.00000  27.18904             13.70731
654.46729   1129.22430  214.00000  17.82665             15.50176
653.95676   1283.87568  185.00000  16.48242             14.30663
659.77695   776.10037   269.00000  22.28157             15.51310
661.38111   612.63518   307.00000  29.05018             13.79416
657.97861   818.86631   187.00000  18.49040             12.96867
658.73864   1159.06818  176.00000  17.80684             12.63919
660.70558   982.11675   197.00000  17.52486             14.35677
658.94836   1101.92958  213.00000  22.47446             12.25768
661.13397   1472.36842  209.00000  17.52405             15.22900
663.30435   453.32850   207.00000  17.31937             15.48132
663.31754   847.32701   211.00000  18.80329             14.46563
666.62295   11.08743    183.00000  18.10267             13.70872
667.57872   655.83830   235.00000  19.35541             15.51332
668.22930   1395.50955  157.00000  15.76692             12.78389
669.93281   1210.88538  253.00000  20.79982             15.74205
671.18797   1078.71053  266.00000  21.48764             16.00609
676.14497   1296.45562  338.00000  24.41023             17.80924
673.74299   1095.73364  214.00000  18.73410             14.62939
674.19679   1163.26908  249.00000  19.30456             16.47237
672.41837   1311.34184  196.00000  18.73922             13.40149
672.51724   730.45813   203.00000  18.70808             13.89774
672.59350   256.95122   123.00000  15.00678             10.56536
677.31683   1186.84158  202.00000  26.07266             10.55447
674.50638   1255.90213  235.00000  23.99200             12.75931
677.84348   690.35217   230.00000  19.12260             15.33460
678.06944   899.99074   216.00000  17.46001             15.80070
683.22796   1138.58967  329.00000  26.29787             17.41597
684.16667   712.84649   228.00000  20.25309             14.56292
682.02439   1344.89024  246.00000  18.08380             17.36438
683.85890   837.82822   163.00000  16.61455             12.53512
684.89697   1263.89697  165.00000  18.15300             12.04518
686.03831   1196.89272  261.00000  18.94582             17.98993
683.93396   1673.48585  212.00000  17.75988             15.24345
688.10360   55.15315    222.00000  18.03989             16.11661
689.10714   265.08036   224.00000  17.63528             16.26552
689.83264   1101.01674  239.00000  18.61282             16.64059
689.92971   1073.80511  313.00000  24.25719             16.64326
692.82993   1421.36054  294.00000  24.69102             15.40567
695.08099   1219.36972  284.00000  23.59563             15.51906
697.67513   634.38071   197.00000  20.77697             12.12646
701.84300   818.18430   293.00000  26.36536             14.99800
698.15344   936.53968   189.00000  17.80029             13.55595
697.50000   749.81148   122.00000  13.78523             11.27985
698.39161   1153.76224  143.00000  16.41690             11.14030
702.54545   737.10227   176.00000  15.91134             14.12579
702.88142   1248.80632  253.00000  21.24637             15.38760
703.76712   1100.51142  219.00000  19.38409             14.69287
706.81569   870.77647   255.00000  20.82761             15.75315
710.39088   1073.83713  307.00000  22.75840             17.29436
709.19409   1339.88186  237.00000  19.22596             15.83994
707.91444   1434.58824  187.00000  19.29612             12.41767
711.83824   1135.27941  204.00000  19.63008             13.44750
708.63710   1146.98387  124.00000  13.30096             11.94364
711.87264   1208.43868  212.00000  19.16607             14.07938
715.17928   1039.65339  251.00000  22.49960             14.67906
713.47489   276.60274   219.00000  17.25448             16.22681
711.02688   473.47849   186.00000  17.56499             13.47441
714.53982   1420.45133  226.00000  23.72361             12.15946
714.29204   676.59735   226.00000  17.46002             16.54181
712.71687   756.45181   166.00000  16.26831             13.05773
713.83636   1182.13636  220.00000  20.03155             14.17463
715.58095   47.60000    210.00000  17.57913             15.36244
718.61076   949.15823   316.00000  21.42478             18.97573
721.73158   1173.30263  380.00000  34.83819             14.97993
722.40072   618.40072   277.00000  26.00038             13.63251
718.76271   1100.87006  177.00000  17.19444             13.45739
725.29568   1068.32226  301.00000  29.86427             13.16804
726.42475   725.60535   299.00000  23.99817             16.47153
727.22311   1683.96813  251.00000  24.43715             13.25707
728.11330   810.21675   203.00000  21.19377             12.25649
726.00000   901.40088   227.00000  17.41016             16.72814
726.40394   1051.57143  203.00000  17.65361             14.85704
729.82117   1245.45985  274.00000  21.71320             16.30457
725.04192   925.58683   167.00000  17.19374             12.52586
729.07870   1012.94907  216.00000  17.49544             15.88357
728.91045   1161.08458  201.00000  19.26005             13.38269
729.95238   862.18519   189.00000  16.34084             14.72967
732.51709   480.46154   234.00000  18.52062             16.11500
733.10127   1110.28692  237.00000  19.38902             15.71376
735.47737   1231.09465  243.00000  20.63644             15.08856
737.45185   1292.13704  270.00000  19.76485             18.06424
741.77838   626.73514   185.00000  19.99762             11.81492
740.78112   718.56223   233.00000  20.16029             14.75974
742.25311   986.91286   241.00000  21.12675             14.53852
735.96552   796.86207   29.00000   7.29836              5.03061
740.16514   1150.50917  218.00000  17.52464             16.18272
743.20068   1459.47619  294.00000  24.36156             16.32859
746.62452   818.31801   261.00000  19.61407             17.02862
744.04444   1101.78519  135.00000  14.82914             11.72054
745.40183   1178.60731  219.00000  17.91599             15.61037
746.45070   598.53521   142.00000  17.39007             10.64960
745.99219   1166.08594  128.00000  15.33430             10.94259
746.77852   707.00000   149.00000  15.07791             12.69384
748.19545   1085.20455  220.00000  18.10965             15.61573
748.73892   889.17241   203.00000  18.13992             14.43920
744.46269   1194.85075  67.00000   10.16022             8.42013
748.06587   1364.47904  167.00000  19.39985             11.65474
749.04695   1659.20657  213.00000  18.79115             14.52264
751.40152   683.16288   264.00000  21.56401             15.63374
752.22881   511.61441   236.00000  19.43154             15.65340
752.24227   37.58247    194.00000  16.79617             14.71711
754.14508   1251.79793  193.00000  20.39584             12.11062
755.91919   1808.62626  198.00000  20.55590             12.35194
756.81786   1312.12143  280.00000  21.77656             16.64890
756.43775   540.11245   249.00000  17.94534             17.81739
761.27240   1043.90681  279.00000  24.51725             14.69454
758.25523   1151.38494  239.00000  18.59589             16.36922
759.94672   783.08197   244.00000  21.26254             14.80409
758.52432   1359.55676  185.00000  16.39800             14.61788
758.70950   1093.93855  179.00000  17.98208             12.82345
756.01282   1275.12821  78.00000   11.97737             8.28159
759.90769   900.98462   130.00000  14.22490             11.67133
763.03548   1003.69032  310.00000  21.47136             18.68811
763.36364   1239.66434  143.00000  22.46922             8.15747
761.83582   1787.19403  134.00000  15.32273             11.21306
761.36464   836.57459   181.00000  17.94026             13.01156
763.75281   870.61236   178.00000  18.46884             12.38579
767.99578   1120.63291  237.00000  24.03483             12.73760
770.17872   880.09787   235.00000  21.00112             15.27142
770.07317   1190.72561  164.00000  23.58209             9.88518
770.04348   1272.65652  230.00000  21.99104             13.38551
772.06393   1206.32877  219.00000  22.03342             12.86258
770.91538   1227.50769  130.00000  19.89586             8.83572
773.88636   658.96818   220.00000  22.73957             12.55960
772.21569   732.00490   204.00000  17.82456             14.79968
772.53216   1060.83626  171.00000  19.21466             11.89479
770.68493   1282.91781  73.00000   12.61311             7.36388
775.67939   1309.83588  262.00000  21.88835             15.30106
778.08636   907.07727   220.00000  19.60755             14.40902
776.60526   1474.53684  190.00000  16.16811             15.05756
779.44211   1137.10000  190.00000  17.51260             13.94125
777.71429   1236.84821  112.00000  12.13368             11.92053
780.48315   816.55618   178.00000  15.46739             14.86067
782.37089   645.02347   213.00000  17.92310             15.81610
782.40230   1019.62644  174.00000  16.91371             13.20921
781.57831   1067.51205  166.00000  15.55826             13.78873
784.33023   1082.01860  215.00000  17.59302             15.64342
784.15044   1322.91593  226.00000  19.51588             14.82046
784.96610   551.95763   236.00000  18.84492             16.04047
784.60606   942.57576   165.00000  17.18104             12.79988
784.73228   1181.58268  127.00000  16.84522             9.76849
787.31780   985.66102   236.00000  24.08269             12.81260
787.21287   1195.33663  202.00000  18.06689             14.69963
786.54802   1352.03955  177.00000  17.97612             12.55521
786.17722   1390.59494  158.00000  19.67684             10.50487
786.15652   1226.78261  115.00000  13.46475             11.10054
789.35224   12.21194    335.00000  25.84542             16.85823
783.87805   1128.12195  41.00000   7.34986              7.07736
789.97015   827.45771   201.00000  16.06516             15.97875
789.42581   1283.29677  155.00000  15.88081             12.59618
789.85926   932.42222   135.00000  15.18227             11.34720
791.33136   1244.69822  169.00000  18.74513             11.49470
791.40571   951.22857   175.00000  18.10408             12.48982
794.46154   1417.12426  169.00000  18.18284             12.02861
793.86607   1395.47321  112.00000  13.73847             10.60789
794.95210   1430.05988  167.00000  16.41103             13.16854
795.95261   780.90521   211.00000  22.45835             13.29834
800.19000   865.55500   200.00000  19.96627             13.08136
798.85385   1102.49231  260.00000  24.24461             14.59960
805.61628   1128.47965  344.00000  32.39631             13.81355
799.48876   1358.36517  178.00000  15.76190             14.50261
799.69565   1013.75362  207.00000  19.28117             13.68964
805.80423   1276.00529  378.00000  27.50775             17.84712
803.90055   840.51381   181.00000  16.87945             13.81269
800.55446   854.72277   101.00000  12.33823             10.59217
808.63987   511.65916   311.00000  25.45590             15.63570
805.16438   896.09589   219.00000  17.56258             16.00283
804.74408   945.89573   211.00000  19.12473             14.09645
808.11765   1118.27059  170.00000  21.80094             10.30060
805.68750   1166.60938  192.00000  18.72951             13.11303
811.44355   580.78226   124.00000  14.91501             10.62971
811.95000   777.86500   200.00000  16.88207             15.13750
812.81720   978.97133   279.00000  20.38702             17.69497
810.25532   1053.24113  141.00000  15.89615             11.30268
810.31638   1192.76836  177.00000  16.66403             13.64553
813.10081   140.98790   248.00000  18.84217             16.88389
816.14041   1374.22945  292.00000  30.43760             12.72943
812.38855   642.82831   332.00000  29.37639             14.47460
808.86364   852.31818   22.00000   6.79212              4.17184
815.10180   885.86826   167.00000  18.30559             11.78173
816.61275   1007.59804  204.00000  20.96387             12.54334
812.79310   1021.50575  87.00000   11.66385             9.51491
819.15700   1313.74061  293.00000  25.29578             14.89591
820.54921   722.05079   315.00000  22.11598             18.35065
817.68478   1150.18478  184.00000  17.55325             13.48137
822.39000   998.53500   200.00000  23.89729             10.88423
817.54783   1161.09565  115.00000  14.36329             10.60024
817.47791   1177.88755  249.00000  24.97324             12.92357
821.04225   607.14789   142.00000  15.09882             12.04857
819.03061   1036.65306  98.00000   13.54977             9.23689
824.85246   1220.51366  183.00000  17.93852             13.15815
823.22527   1253.58791  182.00000  17.32059             13.57220
827.06513   1577.63985  261.00000  26.00908             13.30361
826.33048   1463.45014  351.00000  29.97137             15.68706
828.72941   1501.19216  255.00000  22.48316             14.49733
829.26142   929.67766   394.00000  25.64165             20.03990
828.15254   1328.83475  236.00000  20.39018             14.80864
828.29614   684.18026   233.00000  21.50338             13.87464
829.43590   1286.46154  195.00000  18.26883             13.68609
825.90625   585.78125   64.00000   10.64190             8.20632
832.63816   853.13816   152.00000  15.95965             12.18908
832.85882   577.91176   170.00000  16.18111             13.54162
835.59386   1032.50853  293.00000  23.05099             16.71375
832.12963   1529.91667  216.00000  23.66729             11.65229
838.51613   1087.62903  310.00000  24.44384             17.69004
836.90690   1189.36897  290.00000  26.28520             14.38242
837.20513   483.06838   234.00000  17.70031             16.92019
835.62121   1119.36364  132.00000  16.46088             10.23472
838.97642   811.75943   212.00000  17.45149             15.57518
839.61826   1064.73029  241.00000  20.03400             15.70865
842.36404   1171.45614  228.00000  24.61212             11.88636
833.82609   1490.15217  46.00000   8.41757              6.99898
840.71691   671.30882   272.00000  20.83940             16.69183
842.06944   969.13889   216.00000  19.63652             14.05884
837.51515   846.36364   33.00000   7.39040              5.70928
844.12000   1003.44444  225.00000  22.20265             13.07781
844.37712   829.70339   236.00000  22.55267             13.38981
841.90055   1319.69061  181.00000  16.24928             14.19032
841.86503   641.07975   163.00000  16.28299             12.75699
843.12315   894.14778   203.00000  17.84936             14.77917
841.30841   1378.85981  107.00000  12.24854             11.26347
840.00000   1013.58974  39.00000   7.35893              6.70051
844.37255   1110.67843  255.00000  24.11172             13.55326
844.35000   1261.58214  280.00000  23.21244             15.44115
846.22989   1404.26437  261.00000  19.20860             17.32473
848.01765   8.31176     170.00000  15.97779             13.68888
850.50193   786.58301   259.00000  20.43766             16.27605
854.01333   1151.43556  225.00000  22.82559             12.70410
852.38462   812.87692   195.00000  21.16589             12.05547
856.28191   1360.90426  188.00000  20.71623             12.02721
857.25806   1344.47926  217.00000  20.22612             13.67790
854.80128   1102.39103  156.00000  17.24871             11.74598
856.84722   1291.23611  144.00000  17.19003             10.77619
856.45349   924.98837   172.00000  16.83960             13.09786
858.94359   1374.28205  195.00000  24.80800             10.26911
853.91429   767.68571   35.00000   7.26624              6.07720
861.26374   47.77656    273.00000  19.85911             17.77878
860.13615   692.79343   213.00000  18.49666             14.72223
859.19394   1301.29697  165.00000  18.35680             11.62325
860.92202   869.89450   218.00000  19.30980             14.74907
858.01948   1227.34416  154.00000  16.23888             12.33969
862.53017   998.96552   232.00000  19.96866             15.89551
863.12796   1262.86256  211.00000  19.59149             13.77091
861.74359   1529.85641  195.00000  19.40860             13.03944
865.88739   900.22523   222.00000  24.98400             11.45346
863.13571   856.03571   140.00000  14.61938             12.44480
866.39918   143.59259   243.00000  21.83933             14.29881
868.09718   1278.42947  319.00000  22.55538             18.19855
866.19412   983.95882   170.00000  17.26086             12.84009
868.39535   644.72093   215.00000  23.20139             12.31882
867.73604   681.71574   197.00000  18.75298             13.53729
864.11382   839.16260   123.00000  14.40100             11.16821
867.13291   573.77215   158.00000  14.87099             13.76911
870.80142   1085.20567  141.00000  22.44469             8.42863
866.31159   1093.26812  138.00000  18.18072             9.84391
867.46281   1115.54545  121.00000  13.04783             11.86480
869.04651   1564.23256  215.00000  21.70019             12.74351
875.24348   816.13478   230.00000  25.32748             11.91243
870.51852   1040.16204  216.00000  18.57052             14.98540
869.35556   1159.53333  180.00000  18.10341             12.73681
877.80061   1213.44172  326.00000  25.36373             16.84692
874.04598   628.26437   174.00000  17.94006             12.72665
870.73950   831.49580   119.00000  13.08144             11.65289
870.48252   1229.15385  143.00000  14.16858             12.90365
870.73118   1244.56989  186.00000  22.84567             10.82720
874.17937   793.86547   223.00000  18.53287             15.47969
877.07170   916.38868   265.00000  21.12993             16.43903
873.86207   940.86782   174.00000  17.60006             13.10606
875.30415   1142.58986  217.00000  18.06067             15.33287
875.89595   997.50867   173.00000  19.65338             11.40724
874.16940   1181.72678  183.00000  17.85251             13.11343
876.97191   1199.26404  178.00000  18.93301             12.05080
876.97778   528.67778   180.00000  16.57952             13.86544
875.85393   637.23596   89.00000   13.64998             8.40256
881.76108   1111.84586  519.00000  33.90554             21.46134
880.28523   603.36242   298.00000  22.30797             17.11699
880.55093   846.09722   216.00000  25.77389             10.88812
878.32716   977.37037   162.00000  18.23634             11.45351
880.13900   1445.90734  259.00000  19.03742             17.43744
880.12093   64.95814    215.00000  18.00975             15.27913
883.96139   773.62934   259.00000  26.52678             12.64758
882.14655   466.86207   232.00000  21.43665             13.96404
883.03750   988.03125   160.00000  18.00520             11.51845
884.34457   1065.42322  267.00000  23.98015             14.69871
880.96129   1304.80645  155.00000  18.33213             10.80174
882.04706   1560.56471  170.00000  17.35365             12.52837
886.32075   964.88994   318.00000  24.18841             17.15630
887.53951   1378.75988  658.00000  32.53029             26.50836
884.53514   932.85946   185.00000  16.76072             14.39582
886.60390   1319.30519  308.00000  23.58801             18.21146
888.36528   93.45337    386.00000  26.85126             18.47588
887.81193   1031.93119  218.00000  18.66887             14.92386
886.89005   1237.71728  191.00000  16.94822             14.37412
890.64088   307.18232   362.00000  24.11467             19.36500
888.22901   880.96183   131.00000  15.05434             11.17456
890.72515   1075.69591  171.00000  20.14250             10.96996
890.61538   1429.43439  221.00000  17.30776             16.28470
891.71429   690.34392   189.00000  16.11006             14.99339
893.56989   503.90323   186.00000  19.16092             12.36658
892.47222   921.84444   180.00000  16.83120             13.78405
895.52301   40.29707    239.00000  18.71109             16.30636
892.28333   1001.45000  120.00000  14.81621             10.35160
895.50000   633.87222   180.00000  20.66337             11.42159
898.41011   1302.63483  178.00000  21.14048             11.00088
897.32794   1262.82591  247.00000  20.53636             15.45909
897.27624   740.92818   181.00000  16.30971             14.24352
904.22440   1341.96950  459.00000  27.69536             21.67955
899.79008   888.86260   262.00000  24.14698             14.33009
900.10811   465.19820   222.00000  22.00772             12.92102
902.19459   973.10811   185.00000  18.17012             13.11054
901.22086   1108.15337  163.00000  17.00235             12.41496
904.51923   1202.40769  260.00000  20.22335             16.71057
906.30588   453.87647   170.00000  17.95316             12.27102
904.33939   716.10303   165.00000  17.13730             12.63988
903.05983   1069.17094  117.00000  17.35790             8.71921
905.37719   1226.36842  228.00000  19.47225             15.12397
902.96364   1322.46364  110.00000  13.31883             10.58056
907.30526   1018.31579  190.00000  16.03232             15.15409
909.53710   621.88693   283.00000  20.98956             17.53149
912.78947   824.05882   323.00000  22.60323             19.13763
908.75714   726.47857   140.00000  15.38601             11.62901
910.93785   801.04520   177.00000  18.29805             12.49098
907.10072   1052.49640  139.00000  16.06916             11.13977
907.78261   1124.13043  69.00000   12.57143             6.97845
912.03302   991.32075   212.00000  20.47608             13.24838
911.38554   875.03614   166.00000  17.73006             11.95846
912.97191   888.59551   178.00000  16.81343             13.55071
916.15859   737.84581   227.00000  19.91099             14.63155
915.60504   904.76050   238.00000  21.18533             14.46422
914.88636   774.46591   176.00000  18.21460             12.35841
913.83607   1191.24590  122.00000  14.69057             10.99491
916.27206   1273.87868  272.00000  21.03119             16.72191
913.78344   1318.64968  157.00000  15.21405             13.15114
918.61638   407.90948   232.00000  21.02316             14.43020
916.97849   653.23118   186.00000  17.90399             13.24231
915.55645   1206.38710  124.00000  16.81215             9.72857
918.65323   1436.83065  248.00000  19.19776             16.52462
919.71921   675.94089   203.00000  17.64724             15.26664
918.03472   1137.26389  144.00000  15.59735             11.95037
918.86387   1361.92147  191.00000  17.29752             14.19249
919.67317   1517.39024  205.00000  18.20697             14.60937
920.09524   468.50952   210.00000  17.88587             15.03224
918.83125   501.76250   160.00000  15.37138             13.27639
920.08589   916.93865   163.00000  15.59554             13.94950
919.10390   1082.40909  154.00000  14.49647             13.61013
917.82635   1178.49102  167.00000  17.83756             11.99087
920.72889   1462.92444  225.00000  18.76588             15.30943
920.50376   550.17669   266.00000  23.98281             14.31946
920.76020   515.78061   196.00000  16.77085             14.90060
925.08077   635.05000   260.00000  22.75574             15.29407
921.31343   690.18657   134.00000  15.76717             10.87853
922.65574   372.86475   244.00000  19.76656             15.83354
923.85520   708.52036   221.00000  18.00958             15.71812
924.93434   1117.33838  198.00000  20.82876             12.38357
922.40667   1233.96000  150.00000  15.10481             12.69540
926.28626   1373.98473  262.00000  22.64860             14.89253
926.17254   881.55986   284.00000  25.76265             14.18112
932.60884   1294.80272  294.00000  28.20762             13.76211
928.39583   969.37500   192.00000  20.41169             12.17673
929.83544   593.51055   237.00000  21.21271             14.25623
927.66452   1188.43871  155.00000  17.50702             11.31163
937.66667   962.40084   237.00000  29.66093             11.65461
931.42902   1089.39432  317.00000  23.71059             17.44129
931.23554   742.89256   242.00000  21.55460             14.37558
933.80976   982.99024   205.00000  18.08599             14.51272
934.69565   1126.40994  161.00000  19.44555             11.97971
933.08057   824.91469   211.00000  19.59870             13.73177
932.58621   1145.18391  87.00000   12.83111             8.65105
936.65399   1168.92015  263.00000  23.19771             14.49430
936.78058   1518.41367  278.00000  23.58650             15.22385
934.22156   1344.53892  167.00000  17.91389             12.08683
937.65074   908.61765   272.00000  23.37945             15.00956
936.15000   1104.55000  120.00000  14.39200             10.80449
937.75120   376.75120   209.00000  19.34370             13.81883
942.01778   1214.59556  225.00000  22.67078             12.83468
939.66346   42.18750    208.00000  18.58138             14.34640
940.50435   788.92609   230.00000  19.70711             14.89772
942.16667   870.65248   282.00000  21.21605             17.00351
941.57372   1327.45833  312.00000  22.90297             17.62737
939.50530   1412.69611  283.00000  22.06997             16.40704
941.74834   851.55629   151.00000  17.80357             10.95364
943.96296   488.30093   216.00000  19.54345             14.13393
942.87162   803.25676   148.00000  16.08436             11.81739
941.92188   940.78906   128.00000  15.30561             11.00244
943.27000   1431.83000  200.00000  18.61374             13.81230
940.40541   930.83784   111.00000  13.87437             10.88768
947.28625   1071.04461  269.00000  26.21298             13.45174
941.94444   422.96296   54.00000   9.64568              7.07111
947.46584   687.32298   161.00000  17.58479             11.73493
947.03763   745.15591   186.00000  16.53743             14.76390
945.61582   995.14689   177.00000  16.09820             14.09311
947.94694   1086.42857  245.00000  21.76347             14.36905
945.63309   1348.86331  139.00000  15.57824             11.40690
948.48454   1366.69416  291.00000  20.29291             18.28797
948.07447   1640.68085  188.00000  16.04407             15.52271
947.93525   639.49281   278.00000  21.43253             16.57780
948.57143   1257.53456  217.00000  18.65439             14.95079
947.49180   1027.45902  122.00000  13.03137             11.91189
949.30364   1053.30364  247.00000  21.92328             14.62231
947.00000   1105.84127  126.00000  15.70570             10.43990
951.35111   1153.17778  225.00000  19.99770             14.46515
946.98077   1199.08333  156.00000  19.84288             10.19752
950.69079   929.02632   152.00000  16.10842             12.17975
953.21778   713.06667   225.00000  18.72328             15.41730
956.60403   306.07718   298.00000  22.42792             16.97359
952.41837   664.65816   196.00000  17.65734             14.42918
954.24664   439.00000   223.00000  17.54932             16.19829
961.25067   1398.26933  375.00000  33.11212             15.05627
954.24561   915.36842   171.00000  17.01270             12.91327
954.67347   1270.89796  147.00000  14.63464             12.98910
955.89855   620.26570   207.00000  18.72062             14.32044
955.99448   697.35912   181.00000  16.31013             14.37400
957.24731   818.61290   186.00000  17.24875             13.82562
957.31250   411.49375   160.00000  15.40919             13.63062
972.62600   1347.18800  500.00000  41.85878             16.39557
959.10798   385.45070   213.00000  18.58257             14.75505
958.30935   747.44604   139.00000  15.47530             11.53296
962.54825   857.96053   228.00000  22.82201             12.79552
959.44505   1123.58242  182.00000  22.24984             10.54956
962.69106   1378.42683  246.00000  21.21400             14.89134
961.51685   468.78090   178.00000  15.69800             14.54447
960.00735   876.66176   136.00000  16.76086             10.56942
960.68786   1187.75723  173.00000  18.29340             12.14388
964.47909   571.34221   263.00000  19.05402             17.81887
961.64706   979.30588   170.00000  15.17945             14.37891
960.50794   968.46032   63.00000   10.68117             7.74478
963.22464   1033.09420  138.00000  16.26199             11.06979
962.89706   1024.14706  68.00000   9.99670              8.73249
966.70130   833.37013   154.00000  16.12431             12.49925
966.42857   33.86224    196.00000  20.47993             12.27339
965.53636   924.80909   110.00000  14.57670             9.85380
966.45968   1146.07258  124.00000  14.99316             10.50336
970.10078   1419.45736  258.00000  22.35336             15.16051
969.76106   1080.76106  226.00000  17.21240             16.96937
969.77736   410.36604   265.00000  22.02417             15.76331
970.54825   519.69737   228.00000  18.59036             15.83194
972.69550   618.66436   289.00000  23.36750             15.86238
973.63354   788.61491   322.00000  22.12456             18.77212
970.08974   934.44872   156.00000  14.26562             14.09539
970.15909   1103.36364  176.00000  16.61723             13.49350
975.09794   986.73196   194.00000  21.71300             11.86458
973.92308   1011.00000  208.00000  20.88711             12.79796
973.62414   538.80345   290.00000  21.08753             17.68994
974.21293   652.73004   263.00000  20.45093             16.49995
972.12442   1051.23041  217.00000  20.11319             13.82321
975.39057   1782.14815  297.00000  21.70552             17.47854
975.15074   333.27206   272.00000  19.19886             18.17974
971.80978   736.32609   184.00000  17.85005             13.34035
971.22464   1129.18116  138.00000  14.85859             12.04003
977.14516   367.06989   186.00000  19.08516             12.48085
976.94444   468.01190   252.00000  19.05549             17.09206
976.94860   1278.39720  214.00000  18.04852             15.20152
981.87324   1092.10563  284.00000  25.10413             15.38594
978.09396   874.40940   149.00000  14.86758             13.16587
979.61304   901.36957   230.00000  19.09876             15.33551
977.40136   1160.38095  147.00000  15.74634             12.08573
979.86700   701.07882   203.00000  19.95058             13.16870
978.76786   723.74107   112.00000  14.56218             10.02180
978.74793   822.82645   242.00000  24.94312             12.56041
979.91429   922.44286   210.00000  19.16773             13.94990
978.07857   1140.42857  140.00000  13.65406             13.11545
978.15385   1221.85315  143.00000  15.30510             11.91559
982.97561   1468.92334  287.00000  22.77096             16.11846
983.85841   30.97640    339.00000  23.21516             18.88970
979.12295   969.50820   122.00000  15.48540             10.28888
985.34231   1326.67308  260.00000  24.60080             15.29054
985.02372   597.50593   253.00000  24.10290             13.42719
981.25731   1194.71345  171.00000  17.11190             12.73813
984.61088   1375.95397  239.00000  23.50561             13.30463
985.43772   1451.04270  281.00000  25.67783             14.04983
983.14973   1433.57219  187.00000  18.34629             13.00837
983.70270   733.49324   148.00000  15.45963             12.54251
985.07692   942.62130   169.00000  19.22907             11.28943
987.49784   766.54113   231.00000  23.97720             12.44737
985.23353   412.76647   167.00000  15.16391             14.13618
984.64925   750.28358   134.00000  15.27848             11.19032
986.11468   1055.62844  218.00000  17.28515             16.15569
987.61957   1025.23913  184.00000  17.76449             13.28521
986.44720   1168.52174  161.00000  16.42378             12.71068
987.02966   664.29661   236.00000  21.08841             14.32881
986.27273   717.20000   110.00000  14.70658             9.78659
988.40426   443.81277   235.00000  18.53643             16.86541
989.86264   571.91758   182.00000  20.95231             11.35912
990.06915   974.60638   188.00000  17.28905             14.59457
992.95582   648.53414   249.00000  19.31357             16.94298
993.89868   707.27753   227.00000  18.12713             16.35352
991.35849   883.16352   159.00000  16.66062             12.22802
991.19556   1011.25333  225.00000  18.49096             15.60801
991.85938   1276.96875  128.00000  15.39435             10.62695
994.58286   796.78857   175.00000  19.20194             11.74554
992.47647   928.18235   170.00000  15.28735             14.15430
993.40769   455.83077   130.00000  16.61320             10.19913
994.95312   13.48438    192.00000  16.22259             15.05673
996.90086   467.99569   232.00000  17.71098             17.00988
996.41935   562.45161   186.00000  17.41390             13.86306
996.14465   775.34591   159.00000  16.53656             12.38446
997.56757   835.96139   259.00000  19.79361             16.92889
994.88696   693.23478   115.00000  15.14328             9.82604
996.06936   956.18497   173.00000  21.50420             10.46090
996.90123   1236.55144  243.00000  20.31195             15.30970
996.15972   1285.59028  144.00000  19.35282             9.54153
996.87705   752.81148   122.00000  15.89493             9.84717
995.62651   1065.48795  166.00000  18.18290             11.74902
998.29963   367.77154   267.00000  25.50786             13.41554
1000.23684  807.62105   190.00000  17.16428             14.32418
997.35664   1040.71329  143.00000  16.01326             11.41345
1000.29323  1111.16165  266.00000  19.81186             17.41437
1000.79310  945.48851   174.00000  16.55571             13.54527
1000.32323  1260.47980  198.00000  19.54278             12.92235
1002.53555  1076.27014  211.00000  18.03208             15.31246
1000.54082  1212.23980  196.00000  19.26387             13.02578
1005.72961  1181.07725  233.00000  20.52094             14.63297
1005.13242  1032.17352  219.00000  20.39936             13.83723
1007.41199  991.70037   267.00000  19.24475             17.74108
1008.34167  1501.31667  240.00000  23.27657             13.53252
1007.64214  1407.37124  299.00000  22.41093             17.16606
1008.87083  861.37917   240.00000  18.59419             16.97711
1010.97600  547.98400   250.00000  22.82623             14.09133
1010.11728  738.80864   162.00000  19.70450             10.56728
1010.21277  576.89362   188.00000  18.90260             12.73290
1011.81545  1372.80258  233.00000  23.83787             12.59724
1012.71260  595.00394   254.00000  21.19777             15.43420
1012.23984  681.97561   246.00000  22.92799             14.08494
1009.40361  1228.67470  166.00000  15.24881             13.89784
1014.05650  387.91525   177.00000  23.14238             9.84593
1013.56098  757.66260   246.00000  20.53826             15.36991
1012.05028  1159.95531  179.00000  17.75195             12.90327
1012.14894  1245.44681  141.00000  14.98777             11.97227
1013.39583  872.21528   144.00000  19.32943             9.74179
1016.72100  915.95611   319.00000  27.96282             15.39946
1014.26531  615.79082   196.00000  19.60216             12.78912
1016.52336  1330.61682  214.00000  22.03030             12.42433
1016.87562  7.01990     201.00000  17.05279             15.13762
1017.34742  630.96714   213.00000  18.79982             14.53371
1018.49583  952.17500   240.00000  23.76197             13.30959
1013.71812  1111.15436  149.00000  16.33024             11.89748
1016.79255  1487.08511  188.00000  17.37017             13.86963
1019.26259  492.12230   278.00000  21.03481             17.29619
1022.92833  878.91468   293.00000  25.29243             15.58810
1020.71429  1004.91209  273.00000  21.30049             16.56186
1020.38991  1122.98624  218.00000  18.69748             14.99009
1021.50336  902.32886   149.00000  16.68405             11.45487
1021.63158  779.18421   228.00000  20.99097             14.25204
1027.27007  1218.80049  411.00000  25.78484             21.62104
1023.68817  1069.68817  186.00000  16.80446             14.16051
1023.57547  1159.74057  212.00000  20.86345             14.61716
1021.42000  1198.82000  100.00000  13.83543             9.30161
1023.39053  1360.94675  169.00000  17.29809             12.67974
1023.82353  1141.25668  187.00000  17.94156             13.41292
1025.07650  962.29508   183.00000  16.64175             14.18504
1024.72857  1387.58571  140.00000  14.12760             12.76268
1026.51636  1436.04000  275.00000  20.83695             16.79618
1025.07143  1347.93407  182.00000  15.70062             14.93498
1028.80952  295.50952   210.00000  18.03992             14.90920
1026.72832  1813.32370  173.00000  15.30019             14.42844
1030.76730  658.32390   318.00000  33.49069             13.01011
1030.60000  463.64348   230.00000  20.96742             14.02171
1028.08081  763.04040   99.00000   13.60899             9.26588
1029.21965  991.26012   173.00000  15.92062             13.93078
1031.80608  1411.17110  263.00000  20.53737             16.37831
1030.90055  798.67403   181.00000  19.99641             11.91722
1032.75824  1170.85165  182.00000  17.00140             13.79423
1032.25397  1200.32540  126.00000  14.72961             11.14955
1030.85149  1291.29703  202.00000  22.98535             11.59584
1032.80328  835.59836   122.00000  13.64413             11.45832
1034.01705  783.08523   176.00000  15.53578             14.45276
1035.97925  1045.83402  241.00000  23.42053             13.50742
1035.97561  1004.19512  164.00000  16.48797             12.92819
1036.90076  735.93893   131.00000  17.32954             9.83782
1041.85427  470.24121   199.00000  25.63813             11.02525
1038.20690  568.59195   174.00000  18.11222             12.31394
1038.08543  596.87437   199.00000  20.88112             12.30890
1039.96988  706.76506   166.00000  17.62842             12.01822
1036.31008  756.57364   129.00000  16.73264             10.16941
1042.08421  964.58684   380.00000  26.47308             18.54369
1045.71456  1268.37670  515.00000  28.33636             24.16321
1040.46729  721.29907   214.00000  20.32039             13.45495
1041.28767  1126.22831  219.00000  24.24522             11.95281
1044.11250  1087.16250  240.00000  18.25379             17.26386
1043.60256  794.57051   156.00000  18.98919             11.21280
1041.61576  1065.95074  203.00000  17.79845             14.62659
1042.53409  1299.34091  176.00000  17.71981             12.76869
1048.95402  741.89655   261.00000  24.24260             13.85361
1047.64527  1189.32095  296.00000  23.88359             15.94481
1044.20513  2.48718     78.00000   14.31356             7.15292
1046.51724  478.63793   174.00000  16.92943             13.34529
1048.15746  512.88950   362.00000  28.59095             16.45617
1047.45455  617.39394   198.00000  22.69150             11.42892
1044.75316  654.84810   158.00000  15.97560             12.78224
1048.02765  994.09677   217.00000  20.35946             14.21116
1045.83152  1136.73370  184.00000  18.41328             12.81529
1048.58081  1325.13131  198.00000  19.91003             13.31887
1045.52201  1816.37107  159.00000  16.51068             12.32594
1048.91398  1290.09677  186.00000  19.17547             12.75876
1047.80583  1398.14563  206.00000  16.64583             15.79581
1048.65060  605.46386   166.00000  17.20950             12.54308
1046.08403  689.37815   119.00000  14.38225             10.86944
1048.37879  908.23485   132.00000  14.97048             11.57756
1051.91011  940.89888   267.00000  23.16119             15.01911
1049.90047  1216.83886  211.00000  18.25950             15.03889
1054.22613  1243.92462  398.00000  26.88921             19.12879
1049.27451  1420.74510  153.00000  15.72209             12.91837
1051.03982  27.21681    226.00000  19.19545             15.16504
1054.27719  817.55439   285.00000  23.45481             15.98658
1054.01646  761.12346   243.00000  21.85709             14.34363
1053.18325  1365.17801  191.00000  18.21329             13.37836
1057.09059  1468.44251  287.00000  24.95915             14.93702
1057.07837  954.79310   319.00000  22.62040             19.41297
1054.87065  1148.61692  201.00000  18.13990             14.30408
1050.68696  1882.29565  115.00000  15.04622             9.73749
1053.47097  533.57419   155.00000  16.29074             12.18171
1055.52451  795.32843   204.00000  17.57090             15.25079
1056.98125  1044.58750  320.00000  23.54126             17.55508
1055.43617  80.90957    188.00000  17.00951             14.07018
1056.79885  680.04598   174.00000  17.15544             13.13758
1059.14500  1414.90500  200.00000  20.27905             12.84832
1058.46087  633.97826   230.00000  17.59895             16.65981
1058.62025  846.33861   316.00000  22.71391             18.15509
1057.78652  986.46629   178.00000  17.91147             13.07903
1061.55484  553.73548   310.00000  23.46320             16.92263
1058.61836  1133.39130  207.00000  18.99906             14.06178
1061.05797  1012.09662  207.00000  17.63082             15.11515
1060.70690  1434.79310  232.00000  17.64690             16.74278
1063.51037  659.26971   241.00000  20.76210             14.86153
1065.47082  869.60700   257.00000  25.67575             13.42333
1061.31783  930.82171   129.00000  14.39251             11.51348
1066.13074  1099.65018  283.00000  21.69652             16.68556
1062.92661  1867.31651  218.00000  20.65950             13.71433
1061.75581  1900.10465  86.00000   12.67937             8.64613
1061.88462  120.85577   104.00000  12.76103             10.61905
1063.13253  582.24498   249.00000  23.62921             13.49347
1065.83700  1063.72247  227.00000  21.59534             13.53220
1064.18269  1293.40865  208.00000  20.31604             13.08458
1070.07932  402.52408   353.00000  23.79689             19.16797
1065.89216  108.64216   204.00000  17.81545             14.81330
1068.74101  441.29137   278.00000  24.82105             14.37880
1068.66529  1172.91736  242.00000  20.54095             15.23922
1071.90706  332.28996   269.00000  26.73944             13.03164
1067.71176  1278.10588  170.00000  19.22834             11.66836
1068.82286  2033.78286  175.00000  16.02575             13.93614
1069.63636  386.62500   176.00000  16.81650             13.37309
1072.14901  751.45364   302.00000  23.72800             16.97397
1072.07692  1263.52137  351.00000  21.99079             21.02951
1069.68116  2.53623     69.00000   12.33114             7.43512
1070.51449  738.71739   138.00000  14.89325             12.16004
1070.03008  791.48120   133.00000  13.61379             12.61332
1070.52980  823.79470   151.00000  14.57930             13.23153
1071.21053  1194.58647  266.00000  21.72142             15.64785
1074.70034  1382.54882  297.00000  24.63934             15.55030
1074.59135  705.03365   208.00000  21.08711             12.66845
1068.51163  1048.27907  43.00000   9.09145              6.07737
1075.77540  888.30481   187.00000  17.50369             13.71173
1076.04813  630.45455   187.00000  19.06237             12.55404
1075.57516  722.61438   153.00000  16.33127             12.16538
1077.86713  1083.39510  286.00000  20.78456             17.61013
1074.64706  1886.22689  119.00000  13.08989             11.66288
1077.93694  504.35135   222.00000  18.12097             15.77222
1082.98768  1493.74631  406.00000  27.57750             19.46845
1078.80153  921.23664   262.00000  19.80866             17.21660
1078.65238  1822.22857  210.00000  18.59128             14.50697
1078.50758  833.19697   132.00000  13.39533             12.62769
1078.29496  1009.71942  139.00000  14.07683             12.68307
1077.60697  1216.40796  201.00000  20.14838             12.81373
1078.23899  1451.49686  159.00000  14.30234             14.15772
1081.82918  1139.18149  281.00000  23.76280             15.71366
1086.47384  592.57558   344.00000  26.12612             17.52931
1087.38679  686.81132   212.00000  24.74871             11.04067
1085.37445  811.26872   227.00000  20.76788             14.15494
1082.31100  969.44019   209.00000  22.55430             11.95026
1085.56296  1181.36296  270.00000  20.15258             17.26049
1082.45294  1296.54118  170.00000  15.21736             14.25787
1082.67816  1348.66667  174.00000  19.46414             11.69190
1083.42541  1406.96685  181.00000  16.83692             13.78334
1084.47150  1038.38860  193.00000  17.80480             14.76028
1084.70000  844.67333   150.00000  14.63380             13.21355
1086.22599  999.10734   177.00000  18.53802             12.22834
1088.68670  448.04721   233.00000  18.82372             15.81143
1087.81410  670.82051   156.00000  16.30327             12.22468
1089.30000  1023.10000  190.00000  18.25887             13.56167
1092.60392  628.20784   255.00000  20.60965             15.85306
1089.46512  1336.78295  129.00000  14.24491             11.68046
1089.18750  1371.89583  96.00000   14.04847             8.76951
1092.34545  464.25000   220.00000  18.36996             15.27679
1090.73469  900.42857   147.00000  16.76420             11.33587
1091.33476  1092.20601  233.00000  21.77268             14.04995
1088.59615  1214.90385  104.00000  13.32345             10.10890
1096.18072  647.13855   332.00000  22.06619             19.71760
1094.31020  823.25714   245.00000  19.60852             16.06448
1092.37158  1109.31694  183.00000  17.78959             13.24582
1097.67961  1362.11974  309.00000  26.33221             15.35065
1093.80184  552.64055   217.00000  18.32485             15.07010
1094.74233  851.39264   163.00000  17.30002             12.18679
1096.43939  1035.89394  198.00000  21.46044             12.37212
1091.57391  1203.65217  115.00000  13.26305             11.08930
1093.87112  1520.91408  419.00000  31.68143             17.09076
1094.88889  519.07246   207.00000  20.11851             13.72145
1098.13834  792.63241   253.00000  23.04017             14.08033
1095.72889  1056.93778  225.00000  17.74432             16.21601
1095.01049  1564.87063  286.00000  21.26327             17.37037
1094.91855  699.10407   221.00000  18.89159             14.90257
1099.29502  731.52490   261.00000  22.77713             14.98400
1091.71795  1457.53846  39.00000   7.90522              6.25162
1096.50857  774.29143   175.00000  16.74139             13.31938
1096.62406  1121.89474  133.00000  16.04337             10.55556
1095.26901  1295.57895  171.00000  17.64583             12.39312
1098.98492  529.50754   199.00000  23.18912             11.15127
1098.75243  1192.66990  206.00000  17.36326             15.18389
1099.17671  1221.28514  249.00000  20.42034             15.54693
1102.81273  1152.55431  267.00000  22.95736             15.05369
1101.12291  1308.68156  179.00000  17.49309             13.09588
1100.76064  981.59043   188.00000  17.43580             13.75038
1105.94510  1070.51765  255.00000  25.59641             12.77014
1102.81618  2017.82353  136.00000  14.31614             12.28140
1103.63107  887.77670   206.00000  19.66216             14.00196
1105.95057  1019.38023  263.00000  27.58191             12.45356
1105.66197  1086.92019  213.00000  20.46593             13.31823
1110.41667  1387.04861  288.00000  26.95742             13.96160
1105.87500  1127.33333  144.00000  18.20901             10.13046
1108.79038  685.28522   291.00000  21.56143             18.05414
1106.26842  1343.39474  190.00000  17.51545             13.94595
1107.82629  468.20657   213.00000  17.70140             15.33391
1113.66852  859.90808   359.00000  28.05031             18.05625
1105.45833  1376.35000  120.00000  12.61559             12.47634
1108.60996  395.95851   241.00000  20.11677             15.28997
1109.80769  533.67033   182.00000  16.51901             14.15303
1110.73778  899.07111   225.00000  19.12690             15.14092
1112.36406  988.85714   217.00000  18.93983             15.33578
1110.86486  1255.84685  222.00000  17.95649             15.80728
1110.58621  787.55172   116.00000  15.35372             9.65428
1109.40000  1.80000     45.00000   10.78136             5.36926
1114.55625  1311.66875  160.00000  17.70673             11.55706
1115.59896  1370.11458  192.00000  19.40735             12.96101
1117.84337  545.53414   249.00000  21.24747             15.26228
1118.05189  803.98113   212.00000  23.86379             11.42238
1114.00000  1585.68122  229.00000  20.57331             14.36105
1120.45593  951.60790   329.00000  29.45259             14.90311
1115.96226  634.02516   159.00000  15.44562             13.11358
1122.69275  735.47826   345.00000  26.90888             16.57290
1117.90909  762.32086   187.00000  16.87044             14.47788
1118.42629  1005.31474  251.00000  24.25215             13.60725
1118.44643  1039.00000  168.00000  17.05260             12.58953
1118.66275  1228.76471  255.00000  22.57968             14.44888
1123.00581  776.63953   172.00000  18.75925             11.78733
1125.50964  1186.20110  363.00000  26.87000             18.24562
1127.13158  972.67763   304.00000  27.24276             14.31223
1123.81266  582.35620   379.00000  28.11070             17.79446
1122.19394  652.52727   165.00000  20.63625             10.49234
1125.09239  832.29348   184.00000  18.18960             12.93016
1127.17937  1063.84305  223.00000  23.19518             12.25068
1122.34862  1084.76147  327.00000  31.60902             13.36741
1122.82857  690.95714   70.00000   10.06070             9.07098
1125.29944  1269.40678  177.00000  20.02102             11.43109
1127.63404  561.48085   235.00000  18.48802             16.33876
1125.01639  1202.38525  122.00000  13.14360             11.92110
1127.77500  526.46667   240.00000  20.86473             14.79533
1125.41322  1282.03306  121.00000  12.89369             12.06024
1132.19608  922.02801   357.00000  25.85840             17.99170
1127.84397  1000.16312  141.00000  17.48744             10.34366
1131.96970  1308.28788  264.00000  20.81984             16.32565
1130.35424  1506.61624  271.00000  22.62112             15.44214
1128.57396  1841.13018  169.00000  16.03990             13.47874
1131.07879  821.45455   165.00000  17.65543             11.96492
1131.07895  763.27895   190.00000  17.06565             14.30966
1130.98160  1017.14724  163.00000  15.66647             13.26653
1130.93644  1378.85593  236.00000  21.20947             14.81635
1132.98742  787.29560   159.00000  16.01250             12.70114
1132.23684  2031.55789  190.00000  16.06581             15.08473
1134.64407  743.61017   177.00000  15.91677             14.54411
1135.60088  1147.58333  228.00000  18.02278             16.77383
1134.85366  361.37561   205.00000  18.28905             14.29458
1133.89691  644.58247   194.00000  20.33493             12.26954
1137.32653  813.28061   196.00000  22.00928             11.99547
1137.37500  1825.80714  280.00000  19.36503             18.52664
1137.03463  681.92208   231.00000  17.78740             16.65004
1138.23301  408.76699   206.00000  22.08215             12.31152
1138.43500  892.42500   200.00000  17.10028             14.94734
1137.98830  1536.64327  171.00000  17.00170             13.12793
1139.55491  599.30636   173.00000  16.52585             13.45188
1140.45963  726.52795   161.00000  17.59851             11.70944
1139.47887  944.70423   213.00000  19.24456             14.24981
1140.38722  1211.45865  266.00000  23.68602             14.38479
1140.33178  570.48131   214.00000  19.12833             14.30522
1139.26207  864.81379   145.00000  14.55298             12.73031
1142.85231  1086.92923  325.00000  22.72724             18.70689
1142.62102  1294.77070  314.00000  29.37032             13.86846
1141.63684  1236.50000  190.00000  16.14077             15.06676
1141.68750  1502.03750  240.00000  25.69182             12.16328
1141.43871  1048.92258  155.00000  16.96003             11.63177
1142.64804  1133.14525  179.00000  16.89982             13.56254
1143.39381  1366.89381  226.00000  18.36486             15.87895
1149.71472  1256.49693  326.00000  25.92423             16.31684
1145.97516  988.85714   161.00000  17.36569             11.90060
1147.06704  1064.20112  179.00000  15.98563             14.37285
1151.09622  1107.45361  291.00000  26.26985             14.39768
1151.34322  429.94492   236.00000  18.40404             16.45029
1150.72093  706.26744   172.00000  18.94655             11.65934
1150.16034  410.37975   237.00000  19.90871             15.28508
1153.72388  1558.98881  268.00000  23.29054             14.79916
1153.61616  1188.40404  198.00000  21.37335             11.96410
1155.36255  894.82470   251.00000  20.66430             15.58327
1153.99675  1171.69156  308.00000  24.47277             16.85931
1155.96109  524.90272   257.00000  22.35539             14.80084
1158.97819  552.19938   321.00000  25.10245             17.54821
1153.29714  661.17714   175.00000  17.90464             12.51744
1153.98324  721.64246   179.00000  16.58516             13.82007
1152.85185  740.93651   189.00000  18.24055             13.33607
1154.56388  943.50220   227.00000  19.51907             14.97891
1152.52147  1148.06748  163.00000  16.61658             12.54803
1160.45000  1430.98750  240.00000  28.18536             10.98528
1156.68651  600.45238   252.00000  20.10872             16.25586
1157.33155  695.78075   187.00000  19.58376             12.31675
1160.93522  635.59919   247.00000  22.93447             13.79153
1159.67208  1281.69481  308.00000  23.78784             16.78335
1162.81749  1444.74525  263.00000  23.54456             14.68162
1159.64848  841.14545   165.00000  19.51239             11.14884
1161.67719  497.37193   285.00000  23.57235             15.49965
1162.15152  1026.63636  231.00000  18.79239             15.76119
1161.74317  1825.28415  183.00000  16.11553             14.49090
1162.38679  14.51887    212.00000  19.98348             13.82357
1166.95556  441.00000   315.00000  27.60476             14.82863
1159.00000  1202.00000  51.00000   9.47139              6.81539
1162.71429  998.53297   182.00000  16.24342             14.29721
1164.68966  1389.69397  232.00000  19.91731             14.91768
1165.68987  964.58861   158.00000  15.41296             13.12130
1170.19382  1216.81180  356.00000  24.18812             19.10623
1167.14839  1252.92903  155.00000  21.35526             9.61637
1174.30917  1534.58422  469.00000  29.79057             20.54764
1168.10000  937.89412   170.00000  15.54620             13.99663
1165.94167  1113.72500  120.00000  15.33083             10.17028
1171.15271  910.72906   203.00000  20.89887             12.80067
1178.03984  683.15538   251.00000  31.54888             11.44890
1169.70370  1055.47090  189.00000  16.83547             14.43232
1171.82105  951.44211   190.00000  17.19858             14.10415
1171.75843  568.89888   178.00000  19.35533             12.10830
1173.94304  869.93038   158.00000  18.36223             10.98285
1173.99522  791.94258   209.00000  20.97339             12.98459
1172.93264  898.52850   193.00000  21.61130             11.76082
1175.01681  365.66387   238.00000  19.91612             15.30166
1172.07527  770.53763   93.00000   11.96779             9.94677
1176.43605  1041.95930  172.00000  19.63013             11.24188
1174.79091  1099.27727  220.00000  19.45556             14.65193
1180.01762  427.29956   227.00000  22.24563             13.06741
1175.60784  1076.31373  204.00000  23.17998             11.32004
1178.47549  1235.98529  204.00000  16.56569             15.83481
1182.80687  1112.27897  233.00000  19.07947             15.95281
1184.11818  601.15000   220.00000  17.62551             16.16151
1184.93600  1264.40400  250.00000  19.56858             16.32843
1182.61594  543.42029   138.00000  15.99431             11.11646
1183.94488  553.49606   127.00000  16.07407             10.30865
1184.03361  741.03782   238.00000  21.70167             14.03196
1184.22335  1169.73604  197.00000  18.27326             13.73618
1188.88649  855.35676   185.00000  19.83689             11.99351
1186.29379  1211.80791  177.00000  16.45922             13.94515
1186.02500  626.23750   160.00000  16.39211             12.44935
1186.17822  835.42574   202.00000  21.21640             12.47891
1187.06343  954.82090   268.00000  21.54414             15.91922
1191.17320  983.86601   306.00000  24.37731             16.24685
1185.51648  807.90659   182.00000  21.84147             10.79039
1185.84211  822.09211   76.00000   13.12728             7.53818
1194.90530  933.78030   264.00000  26.10360             13.75284
1192.93603  1074.22222  297.00000  21.77990             17.49226
1194.52734  1222.72656  256.00000  26.13194             12.66545
1192.44512  893.04268   164.00000  16.43145             12.72517
1192.83553  1014.16447  152.00000  17.24003             11.22122
1190.86667  1401.03333  150.00000  14.85526             12.88845
1194.08889  1425.31556  225.00000  18.31692             15.72365
1193.81362  569.06452   279.00000  25.00110             15.29964
1192.14545  755.58182   110.00000  14.44328             9.77011
1195.50847  638.50282   177.00000  15.91486             14.21242
1195.20000  817.30714   140.00000  16.21594             11.24949
1197.76261  1290.65282  337.00000  23.06148             18.71818
1197.54545  1187.55502  209.00000  17.78599             15.06153
1196.01087  2013.42391  184.00000  19.05131             12.29690
1197.52381  509.30476   210.00000  19.67977             13.74504
1201.25843  1038.69288  267.00000  25.73851             13.66699
1197.68525  1108.14754  305.00000  29.56481             13.41793
1197.34194  1238.25161  155.00000  17.01460             11.69755
1200.40816  1169.76531  196.00000  19.39465             13.42762
1201.72840  1148.60494  162.00000  17.62931             11.89248
1203.00000  428.65934   182.00000  16.27967             14.28806
1204.43961  804.33816   207.00000  21.16795             12.60093
1199.12000  2031.09000  100.00000  13.35685             9.77929
1201.32727  749.00909   110.00000  13.70465             10.48610
1206.52432  522.82703   185.00000  18.55156             12.76228
1205.66912  1252.12500  136.00000  15.75677             10.99006
1207.53778  705.13333   225.00000  18.52395             15.64624
1206.55758  483.62424   165.00000  14.89773             14.14257
1206.35149  819.94059   202.00000  18.76391             13.86859
1208.72500  988.10500   200.00000  19.18972             13.27736
1206.35354  914.29293   99.00000   13.50227             9.60707
1209.73889  1240.99444  180.00000  17.15855             13.78419
1212.24312  757.83945   218.00000  23.81414             11.98341
1210.81548  773.95238   168.00000  19.13208             11.21018
1208.57310  947.28070   171.00000  15.98415             13.77439
1205.77273  2044.70455  44.00000   9.02135              6.29800
1210.08000  51.65778    225.00000  19.13598             15.11255
1213.11979  921.80208   192.00000  21.65651             11.44797
1212.73820  738.26609   233.00000  20.10297             14.80841
1213.67130  846.92593   216.00000  19.99685             13.85154
1211.51880  1021.87218  133.00000  15.21432             11.17403
1212.98454  1177.54639  194.00000  16.89347             14.73531
1213.21983  76.73707    232.00000  18.27320             16.18227
1214.92969  418.77734   256.00000  25.08921             13.02774
1214.99000  878.99000   200.00000  18.91204             13.59160
1217.33992  1268.99605  253.00000  24.62460             13.23911
1214.02804  564.17290   214.00000  19.66258             13.88721
1209.81356  1166.01695  59.00000   9.92156              7.70550
1215.53023  326.44651   215.00000  17.93957             15.32075
1218.68379  1052.85771  253.00000  21.54392             14.97584
1214.90338  27.61353    207.00000  19.61629             13.46835
1216.36410  508.15897   195.00000  18.26630             13.91775
1214.32353  766.16176   68.00000   11.87980             7.42494
1218.26214  1105.77670  206.00000  20.51301             13.24301
1220.22814  1480.00380  263.00000  19.44054             17.97507
1218.49689  402.78261   161.00000  15.80009             13.14084
1219.53714  896.53143   175.00000  15.94231             14.12189
1219.11486  435.75676   148.00000  15.92598             11.97362
1223.72083  1281.43750  240.00000  21.84909             14.00623
1221.24675  1086.00000  154.00000  17.20725             11.66085
1222.91700  679.28854   253.00000  21.41453             15.20113
1224.09859  813.29577   142.00000  15.83574             11.59217
1224.43137  1239.20098  204.00000  17.10596             15.30852
1228.14130  702.05435   184.00000  18.44331             13.37093
1228.77352  458.73171   287.00000  20.63445             18.10721
1225.01333  845.29333   75.00000   13.42643             7.23727
1229.15464  508.46392   194.00000  19.47900             12.78854
1235.55080  794.97861   374.00000  30.60443             16.32636
1230.87168  1137.12832  226.00000  25.48611             12.67645
1229.69519  1207.54545  187.00000  16.77398             14.67661
1229.25907  92.52850    193.00000  18.45079             13.33407
1229.72185  480.00000   151.00000  14.90324             12.93155
1233.13699  1071.76712  292.00000  21.04330             18.25123
1231.52863  1221.10132  227.00000  20.69099             14.04667
1232.66818  406.05455   220.00000  19.60711             14.32631
1227.82759  832.96552   29.00000   7.05335              5.19587
1231.87500  1109.02344  128.00000  15.53745             10.68662
1233.97788  26.26106    226.00000  18.37765             15.76360
1234.53398  841.69903   206.00000  17.83074             14.84989
1232.16561  2021.05732  157.00000  15.61525             12.83918
1235.83468  878.63710   248.00000  19.42982             16.29572
1236.28958  651.00000   259.00000  23.09182             14.78304
1237.90950  807.93213   221.00000  20.15582             14.41654
1234.83019  943.66038   159.00000  17.10928             11.90780
1240.92444  1132.07111  225.00000  24.08715             12.23662
1238.87192  687.96059   203.00000  18.64550             14.01333
1237.67516  498.89809   157.00000  17.31662             11.64386
1236.68707  1196.28571  147.00000  14.82782             12.86921
1240.41102  1171.96186  236.00000  19.48550             15.41612
1240.50000  118.42273   220.00000  18.21192             15.46414
1239.81340  174.59330   209.00000  19.21848             13.85508
1241.48000  1120.62857  175.00000  19.22166             11.84832
1244.08627  1042.82745  255.00000  22.73711             14.76658
1242.07576  341.59091   198.00000  16.44862             15.73411
1246.08065  958.52688   186.00000  17.19872             13.77400
1247.01739  696.14783   115.00000  13.88500             10.81546
1249.30453  778.95062   243.00000  24.39226             14.08868
1249.72581  1004.90860  186.00000  16.89730             14.07600
1251.36464  1029.22652  181.00000  15.76117             14.71485
1252.21673  1219.75285  263.00000  21.45471             15.62162
1251.47273  1243.25909  220.00000  19.80919             14.14602
1255.37644  714.71552   348.00000  22.41082             19.85777
1254.10177  405.24779   226.00000  20.11380             14.45726
1258.02165  556.08225   231.00000  20.05809             14.69513
1254.33043  1123.43478  115.00000  12.88483             11.58376
1256.45455  167.40404   198.00000  16.58979             15.21006
1255.38462  2.43077     65.00000   12.22838             6.97854
1259.70169  1180.07119  295.00000  24.43623             15.75006
1257.19872  1297.53205  156.00000  17.29008             11.56009
1259.94737  1061.04049  247.00000  20.90224             15.14563
1257.74874  1967.73367  199.00000  17.03141             14.93057
1260.00962  94.47596    208.00000  17.33020             15.44592
1260.15768  739.58506   241.00000  19.76459             15.86356
1261.04231  880.22308   260.00000  20.52438             16.50040
1260.13636  55.17677    198.00000  17.79183             14.21007
1259.21569  186.25490   102.00000  12.31983             10.54619
1260.37430  977.93855   179.00000  17.66834             12.94886
1262.36813  1134.78022  182.00000  17.82947             13.05119
1265.23673  138.19592   245.00000  19.51485             16.21773
1263.12291  962.94413   179.00000  16.92717             13.63922
1263.97934  504.49174   242.00000  20.73362             15.12352
1266.72083  859.56667   240.00000  20.60828             14.91021
1267.50000  567.09375   160.00000  14.89792             13.68982
1269.97510  1108.59336  241.00000  22.43123             13.76303
1269.35124  37.27273    242.00000  18.54429             16.65160
1268.16438  403.80365   219.00000  18.47689             15.36119
1268.07487  778.28342   187.00000  16.01700             14.97397
1266.35333  1151.64000  150.00000  15.51244             12.57669
1269.47639  1293.75966  233.00000  18.95628             16.17026
1272.28009  437.46528   432.00000  29.34863             20.00403
1276.34682  466.43931   346.00000  28.53862             16.02753
1279.14861  698.02477   323.00000  26.06725             16.01428
1275.08974  1156.79487  156.00000  18.52087             11.36666
1273.21681  1238.43805  226.00000  18.32204             15.74641
1274.88285  735.13389   239.00000  20.30067             15.39969
1278.77281  1004.58659  537.00000  29.46126             24.28226
1281.18771  626.72696   293.00000  25.94325             14.51386
1274.13445  636.28571   119.00000  14.77987             10.38067
1280.74564  101.03484   287.00000  22.75077             16.26210
1278.58798  510.43348   233.00000  20.99296             14.44340
1281.60078  972.35659   258.00000  20.35580             17.36349
1281.71478  1207.50515  291.00000  20.10724             18.96401
1279.79381  1938.08247  194.00000  16.97875             14.65778
1282.49519  877.60096   208.00000  19.39927             13.88292
1283.64255  1086.27234  235.00000  17.66590             17.02426
1281.86076  1960.36076  158.00000  19.00828             10.98395
1286.94372  523.78355   231.00000  19.76411             15.17772
1284.27397  1181.51370  146.00000  17.16017             10.84113
1284.33333  1056.04167  120.00000  13.27899             11.62165
1289.01606  49.91566    249.00000  18.56339             17.18566
1288.89189  361.42342   222.00000  18.30235             15.52866
1288.39732  570.63393   224.00000  17.74631             16.12580
1291.63514  407.23986   296.00000  20.58678             18.40971
1291.10680  594.78641   206.00000  17.89666             14.71150
1294.17695  716.48971   243.00000  21.24289             14.82207
1293.93839  817.25592   211.00000  17.37902             15.79814
1293.74615  464.47692   260.00000  24.46806             13.84633
1295.43154  483.22407   241.00000  19.41198             16.06438
1299.72241  609.40803   299.00000  22.32706             17.22797
1299.98214  1200.18750  224.00000  19.68352             14.74516
1297.97701  1214.93870  261.00000  20.30934             16.48401
1297.47664  543.31308   214.00000  16.90418             16.19388
1298.24309  1052.14917  181.00000  18.65689             12.49663
1297.32479  908.54701   117.00000  14.53042             10.46435
1301.91818  1106.74091  220.00000  21.63131             13.09808
1303.11024  428.92520   254.00000  21.30780             15.23132
1304.79352  1301.63563  247.00000  20.27822             15.57259
1309.22261  59.75618    283.00000  25.87567             14.06392
1304.78571  387.06250   224.00000  18.53965             15.42905
1303.64583  1094.33333  144.00000  15.96268             11.55505
1306.52913  356.24272   206.00000  18.21460             14.51247
1307.72832  913.20809   173.00000  17.00204             12.99952
1307.83425  961.46409   181.00000  17.97764             12.84293
1309.60294  870.14706   204.00000  19.68402             13.32638
1310.00000  559.94578   166.00000  16.33783             12.94722
1309.63509  1037.54386  285.00000  26.24475             13.98492
1311.20906  1065.22648  287.00000  25.58329             14.40008
1315.67093  722.94888   313.00000  22.64587             17.73637
1314.32195  930.11220   205.00000  16.93375             15.48731
1314.45385  6.00769     130.00000  13.51473             12.42926
1317.25735  489.46691   272.00000  19.72812             17.71558
1318.46907  881.57732   194.00000  21.16281             11.73345
1315.09167  1001.67500  120.00000  13.72189             11.31453
1318.19178  426.59361   219.00000  18.59721             15.05635
1319.14919  768.90323   248.00000  19.33236             16.58640
1320.74064  987.42781   374.00000  26.04295             19.31627
1318.04854  1154.95146  206.00000  22.48417             12.96517
1323.96774  1246.60968  310.00000  22.52770             19.17349
1320.46988  1273.51807  166.00000  15.62874             13.69064
1321.44128  1105.00000  281.00000  23.06397             15.64184
1323.28163  669.91020   245.00000  22.45913             14.10810
1325.13839  865.51786   224.00000  18.93085             15.16424
1325.54918  473.96721   244.00000  19.13479             16.25718
1324.57143  695.53247   154.00000  15.59963             12.96478
1327.48634  944.53552   183.00000  15.84377             14.74338
1330.16370  1203.93594  281.00000  23.37448             15.58128
1328.24138  791.85714   203.00000  17.43549             14.89028
1336.53439  598.07937   378.00000  29.25438             16.63674
1328.15942  684.94928   138.00000  14.95310             11.91578
1331.43578  1153.44037  218.00000  20.06904             13.90831
1330.13270  55.89100    211.00000  19.23491             14.01866
1331.96190  1053.49524  210.00000  17.59275             15.46717
1333.07487  614.90374   187.00000  18.34550             13.02143
1334.01111  745.95926   270.00000  22.15835             15.67073
1334.05495  446.14286   182.00000  19.35160             12.02187
1334.51007  1190.27517  149.00000  15.50445             12.28013
1332.56522  1136.32609  46.00000   10.99788             5.70803
1335.97006  1111.31138  167.00000  15.87501             13.57787
1337.54922  34.97409    193.00000  16.53633             15.02236
1338.17919  730.53757   173.00000  15.63356             14.17900
1340.13298  437.82447   188.00000  22.16694             11.71014
1339.43814  1025.84021  194.00000  16.96474             14.62155
1340.35498  671.94805   231.00000  18.19166             16.21580
1341.86486  1122.73649  148.00000  13.96223             13.49591
1343.77457  85.46821    173.00000  15.27651             14.47006
1344.67596  1083.45993  287.00000  24.04207             15.30530
1345.68599  1240.98551  207.00000  17.63801             15.27006
1346.42208  1056.87662  154.00000  15.73558             12.50449
1347.87709  99.17877    179.00000  15.55297             14.80865
1348.61333  399.92889   225.00000  20.37600             14.12007
1347.92632  1257.88421  190.00000  16.24575             14.89985
1349.49765  167.41315   213.00000  17.61879             15.49048
1350.31304  962.53043   230.00000  19.66927             14.96046
1349.03974  554.52980   151.00000  17.78217             10.84112
1355.43154  744.21162   241.00000  20.93524             14.87245
1352.87845  441.77901   181.00000  19.85997             11.66996
1355.56973  526.12166   337.00000  28.42597             15.28890
1355.38286  1028.89714  175.00000  17.45855             12.82047
1361.15773  485.75394   317.00000  28.92350             14.20605
1358.69264  392.35065   231.00000  23.02960             12.94855
1357.07975  1145.53374  163.00000  17.26877             12.07141
1360.49216  1116.38245  319.00000  23.33464             18.03235
1362.02740  926.44749   219.00000  18.43969             15.20377
1363.26740  1096.31868  273.00000  21.09611             16.53883
1365.19935  140.32353   306.00000  26.76509             14.68312
1363.74101  209.81295   139.00000  13.83270             13.10288
1365.16260  625.76829   246.00000  22.56571             14.07105
1361.35821  720.31343   67.00000   11.40177             7.59331
1364.85897  1301.44017  234.00000  18.87888             16.05009
1366.64286  113.73469   196.00000  16.15297             15.46280
1372.18651  495.08730   252.00000  21.44699             15.15158
1372.23982  1253.52036  221.00000  18.59892             15.14319
1373.88442  203.14573   199.00000  19.40595             13.17609
1373.53906  516.67578   256.00000  21.73593             15.32663
1375.24155  222.22222   207.00000  18.84677             14.06759
1374.61735  23.62245    196.00000  17.59535             14.23364
1378.08974  934.14530   234.00000  19.02383             15.90420
1381.03429  907.26286   175.00000  18.84422             12.25163
1379.12500  1136.25000  176.00000  17.05770             13.21031
1383.12448  81.11618    241.00000  17.96137             17.10633
1381.38690  154.08929   168.00000  15.87672             13.68620
1382.70089  964.62946   224.00000  17.79909             16.15527
1383.69543  43.71066    197.00000  17.57089             14.33726
1387.00676  879.06757   296.00000  23.63051             16.24844
1387.14804  1194.08157  331.00000  23.66388             18.42627
1386.60067  440.49329   298.00000  20.27485             19.19144
1388.16434  740.32517   286.00000  20.69253             17.77293
1391.12255  901.05392   204.00000  25.14176             10.51970
1392.56561  1282.98643  221.00000  20.05696             14.10175
1392.69710  918.36100   241.00000  21.75567             14.40438
1394.10638  623.03830   235.00000  20.23559             14.88628
1395.89520  1215.34498  229.00000  20.87884             14.05675
1401.11638  155.28017   232.00000  23.63144             12.76092
1403.98673  228.04425   226.00000  21.12801             13.73123
1403.53205  877.30769   156.00000  16.96503             11.99957
1405.43580  1016.35409  257.00000  21.01767             15.89554
1402.71852  956.28148   135.00000  17.18597             10.11066
1409.73941  1553.87622  307.00000  23.34625             17.07825
1407.08947  135.74211   190.00000  17.90911             13.51522
1408.01695  943.51977   177.00000  19.44160             11.71324
1418.89399  850.92933   283.00000  33.27744             11.30491
1411.67085  497.47962   319.00000  25.49446             16.17356
1419.10040  910.93574   249.00000  25.07106             12.67329
1417.56420  1527.64202  257.00000  19.31217             17.03572
1420.40234  891.93750   256.00000  19.85093             16.51440
1420.87984  1263.91085  258.00000  19.24206             17.45662
1424.83202  97.38320    381.00000  27.29347             17.99922
1426.01667  527.45667   300.00000  20.13516             19.16057
1424.85780  617.57798   218.00000  19.47596             14.32423
1428.51938  942.36434   129.00000  17.50629             9.65233
1432.18431  984.82745   255.00000  19.31735             16.98074
1431.02326  928.40698   258.00000  19.46091             17.02375
1432.44082  1514.42449  245.00000  19.53684             16.05632
1430.67890  951.72477   109.00000  12.52771             11.11954
1427.92593  1207.29630  27.00000   6.24295              5.53573
1431.46847  175.88288   111.00000  13.75259             10.26497
1438.80460  1069.24425  348.00000  26.67105             17.22762
1440.41892  1420.15766  222.00000  19.42815             14.59695
1438.46358  142.82781   151.00000  16.01998             12.15806
1445.12375  968.50836   299.00000  22.08450             17.27803
1444.57919  559.42534   221.00000  18.62615             15.17288
1444.75527  992.02954   237.00000  23.03598             13.43151
1444.69196  729.83482   224.00000  18.62791             15.34984
1441.16000  1219.12000  50.00000   9.74124              6.48600
1446.55906  598.21654   254.00000  20.03735             16.34272
1447.13810  876.20476   210.00000  19.47900             13.76026
1448.74561  798.14474   228.00000  20.90106             13.90771
1451.38435  1021.43197  294.00000  22.27490             17.65977
1451.58120  1212.04274  117.00000  14.28634             10.45160
1453.77564  837.13462   156.00000  14.74267             13.64831
1459.46405  1132.55120  459.00000  25.33100             24.50030
1456.50000  749.91558   154.00000  15.09314             13.09227
1459.72624  924.61977   263.00000  22.05741             15.57016
1459.35333  986.22667   150.00000  14.53883             13.17331
1462.60811  959.14189   148.00000  16.20079             11.71501
1463.43114  827.29940   167.00000  15.28258             14.02217
1467.44013  1008.34951  309.00000  29.50574             13.83612
1463.17352  1207.05023  219.00000  20.68244             13.76872
1463.40800  608.22400   125.00000  13.47533             11.88365
1466.69828  902.46983   232.00000  20.33930             14.69742
1468.52041  756.83163   196.00000  17.35796             14.86113
1467.31720  1423.39785  186.00000  16.63415             14.26105
1471.03692  1457.77846  325.00000  24.21265             17.37386
1467.64493  795.60145   138.00000  13.92382             12.95937
1470.09615  846.51923   208.00000  18.14950             14.84211
1469.29293  1041.95455  198.00000  19.99385             12.81617
1472.15920  566.15920   201.00000  17.11862             14.98365
1474.33984  209.29688   256.00000  20.09759             16.28700
1478.21739  596.48792   414.00000  27.26771             20.11858
1473.82738  1089.26190  168.00000  18.54193             11.59860
1475.25000  1289.29286  280.00000  22.79308             16.40699
1475.83140  745.22674   172.00000  17.27292             12.69669
1473.52174  914.06522   92.00000   14.41513             8.74506
1475.42035  949.76549   226.00000  18.10095             16.29302
1481.02713  725.14341   258.00000  25.78862             12.78693
1477.79913  875.03057   229.00000  22.18521             13.17180
1477.63000  980.19000   200.00000  16.99701             15.21098
1474.42222  773.00000   45.00000   8.77184              6.54746
1477.79688  792.17969   128.00000  14.73380             11.19658
1479.75460  834.56442   163.00000  19.34732             11.00980
1484.07170  966.12830   265.00000  22.44164             15.14298
1485.27758  1024.08541  281.00000  21.96456             16.37882
1483.09333  1076.92000  150.00000  15.11727             12.67122
1485.00697  391.32753   287.00000  21.21495             17.33458
1487.44444  430.66667   252.00000  19.58199             16.46317
1486.22699  991.12270   163.00000  18.04055             11.58170
1487.23656  933.72043   186.00000  15.87589             15.00407
1492.77542  1286.04237  236.00000  22.66502             13.34688
1493.15758  950.04242   165.00000  18.96621             11.10183
1494.55745  558.57872   235.00000  18.10812             16.80360
1497.08136  827.78305   295.00000  20.35774             18.58298
1497.91438  488.46918   292.00000  20.82224             18.30489
1497.71053  1035.96930  228.00000  17.52685             16.64535
1498.68504  1057.38583  254.00000  21.33878             15.33338
1501.00806  886.54435   248.00000  19.47746             16.42430
1499.18994  1089.09497  179.00000  16.69294             13.71858
1502.23358  1110.30292  274.00000  20.82641             17.04802
1502.95635  1471.98413  252.00000  20.27542             15.89199
1501.17544  359.88772   285.00000  21.91853             16.64004
1505.05319  790.52128   282.00000  26.22781             13.81205
1505.40268  938.40604   298.00000  21.68922             18.04087
1505.14486  230.56542   214.00000  17.90002             15.23792
1511.46442  642.71536   267.00000  23.68254             14.51825
1512.40865  768.91346   208.00000  24.90816             10.88858
1509.92806  1122.74820  139.00000  14.90005             11.97957
1513.07895  834.70395   152.00000  16.49542             11.91104
1516.86250  578.80000   160.00000  17.86874             11.44403
1518.29064  605.50246   203.00000  21.70698             12.69370
1522.13333  903.76667   210.00000  18.42130             14.74078
1526.04762  1065.22511  231.00000  21.60102             13.96142
1523.62069  949.17241   203.00000  17.17244             15.12198
1523.69014  1075.54930  142.00000  17.77918             10.74226
1524.29710  23.78986    138.00000  15.27983             11.50686
1528.67327  536.80528   303.00000  21.07314             18.51582
1529.32800  892.95600   250.00000  23.51138             14.05897
1528.85581  487.42791   215.00000  20.54459             13.45161
1530.54468  655.28085   235.00000  19.36159             15.55077
1530.44809  802.81421   183.00000  19.34321             12.18971
1530.94886  869.26136   176.00000  17.33596             13.01267
1528.80682  559.89773   88.00000   11.50239             9.83610
1531.15808  738.76976   291.00000  25.69020             15.20138
1533.63274  468.03097   226.00000  21.64337             13.60544
1538.25296  791.30040   253.00000  24.07973             14.22655
1535.20690  1088.82375  261.00000  24.22586             13.98640
1537.62371  1023.86082  194.00000  17.22052             14.39688
1540.74638  1107.02899  276.00000  22.24718             15.83310
1539.77154  104.58427   267.00000  22.98487             14.84974
1541.85946  1140.18919  185.00000  16.97241             13.91247
1545.90741  1191.50926  216.00000  17.79167             15.47469
1551.06597  426.22569   288.00000  27.92845             13.52797
1547.54726  778.42289   201.00000  18.21498             14.09224
1548.07353  852.63235   136.00000  15.29855             11.74981
1549.34123  901.17536   211.00000  20.87081             12.93247
1550.54124  626.30928   194.00000  17.34418             14.30209
1551.69186  811.53488   172.00000  15.89918             13.89005
1550.19663  948.83708   178.00000  18.26971             12.45239
1551.61275  1130.90196  204.00000  18.84345             13.84291
1557.73718  499.78205   312.00000  24.12492             16.72155
1555.49515  1048.68608  309.00000  22.08277             17.94068
1555.06704  1212.57542  179.00000  17.81468             12.81909
1567.73545  1191.91534  378.00000  29.38032             16.98260
1561.01840  780.48466   163.00000  16.61914             12.53965
1563.54229  964.27363   201.00000  17.36672             14.80339
1564.14981  1009.50936  267.00000  19.51544             17.44292
1571.97135  1144.84115  384.00000  29.50857             16.92367
1571.73092  738.95984   249.00000  20.51886             15.67212
1569.93567  676.37427   171.00000  16.72915             13.06855
1571.37294  898.32343   303.00000  21.68628             17.90471
1572.37600  381.14400   250.00000  19.25992             16.91667
1580.22021  836.42487   386.00000  32.02100             15.85448
1577.24911  990.12811   281.00000  21.85098             16.58446
1577.43128  660.33175   211.00000  17.23369             15.76087
1577.77273  766.40000   220.00000  17.29295             16.31854
1576.43373  591.84337   83.00000   11.48284             9.20291
1582.21450  1175.62538  331.00000  24.34456             17.62820
1579.68304  934.44196   224.00000  21.84837             13.23097
1584.18220  342.23305   236.00000  22.20165             13.75543
1587.35278  723.67778   360.00000  23.86734             19.31688
1586.58824  945.72689   238.00000  22.49832             14.02890
1583.52000  866.37333   75.00000   11.17497             8.62730
1587.52174  1131.59130  230.00000  17.88986             16.45082
1592.34400  541.46000   250.00000  22.02113             14.53159
1593.50691  656.54378   217.00000  18.03165             15.38053
1591.79245  1835.69811  106.00000  12.89529             10.61229
1594.72973  928.59910   222.00000  18.69797             15.15852
1600.26255  1158.35135  259.00000  20.20662             16.43745
1597.62209  832.26744   172.00000  17.65446             12.43989
1599.88038  952.94737   209.00000  17.63228             15.13280
1606.18452  346.55655   336.00000  29.61141             15.54401
1604.83824  710.52941   272.00000  19.83701             17.76154
1602.74194  778.68145   248.00000  19.94302             16.06157
1603.63033  970.90047   211.00000  17.02708             15.85416
1603.88971  1852.00735  136.00000  14.66507             11.90300
1605.57547  739.61321   212.00000  16.55059             16.33288
1604.34109  876.24031   129.00000  15.02396             10.97243
1607.96498  1142.48249  257.00000  20.75017             16.06375
1609.14423  1476.68269  208.00000  17.28475             15.36434
1616.68729  1123.36770  291.00000  25.35878             14.75650
1610.44262  867.12295   122.00000  12.87204             12.12975
1612.35096  833.62019   208.00000  19.51518             13.80475
1613.59686  991.62827   191.00000  16.29943             15.03675
1619.30041  702.80658   243.00000  21.79065             14.96105
1616.60284  614.75887   141.00000  14.98002             12.11775
1619.57511  1092.69957  233.00000  22.30481             13.44644
1620.47934  636.31405   121.00000  14.30320             10.96421
1622.43590  1020.16484  273.00000  19.63811             17.94165
1626.27426  736.09283   237.00000  20.62386             14.67218
1626.26471  874.22059   204.00000  20.74718             12.61994
1627.56277  958.42424   231.00000  18.70152             16.09451
1625.06780  984.34463   177.00000  16.47594             13.73248
1630.42690  553.37135   342.00000  28.76766             15.71981
1627.50811  1042.08649  185.00000  16.67553             14.33991
1627.28571  617.94958   119.00000  13.32720             11.53134
1631.33173  830.01923   208.00000  16.90242             15.71878
1631.86607  845.71429   224.00000  18.52094             15.51346
1631.76282  788.70513   156.00000  17.71624             11.45101
1631.14966  798.76871   147.00000  16.46016             11.46476
1634.72785  1110.49367  158.00000  17.19846             11.71776
1636.75000  911.18750   192.00000  19.93039             12.46530
1637.94811  719.12736   212.00000  18.15026             15.01451
1639.21354  1555.60417  192.00000  19.03711             13.01032
1638.35570  1827.40268  149.00000  15.04581             12.67395
1639.53488  646.45736   129.00000  13.42791             12.33319
1643.91379  920.75862   232.00000  23.76240             12.81515
1644.61922  1018.03559  281.00000  24.04520             14.98138
1642.56322  1782.83333  174.00000  16.37711             13.54156
1644.29457  634.16279   129.00000  14.32843             11.47225
1644.47573  768.37864   103.00000  13.02439             10.13998
1650.48921  887.58273   278.00000  20.46723             17.79588
1650.30392  1614.83333  204.00000  17.71774             14.68367
1650.47945  776.92466   146.00000  15.68749             11.92199
1652.25275  1117.31319  182.00000  19.29945             12.02449
1650.10180  800.91617   167.00000  16.24899             13.09674
1655.42353  1597.60000  255.00000  22.48868             14.78784
1656.23984  1103.23984  246.00000  21.33770             15.18986
1659.80811  1544.54595  370.00000  27.96858             17.38563
1663.69036  571.57868   197.00000  16.31247             15.42054
1668.91866  861.68421   209.00000  19.43324             13.83903
1671.62048  559.28916   166.00000  15.89504             13.40362
1673.87109  771.71484   256.00000  22.70223             14.39329
1675.09249  1059.40462  173.00000  18.05150             12.30394
1677.71064  1465.36170  235.00000  21.62807             14.13409
1676.29508  1080.54098  61.00000   12.13448             6.44700
1679.30723  1581.93373  166.00000  18.62854             11.58829
1679.75141  881.46893   177.00000  15.58792             14.63419
1684.79670  1745.65385  182.00000  17.38563             13.75599
1683.34286  1793.22143  140.00000  15.13520             11.89132
1686.00000  752.11275   204.00000  17.29393             15.06882
1685.77987  1043.01258  159.00000  16.29169             12.55996
1687.77778  1296.74444  180.00000  16.89418             13.75486
1686.74380  1909.31405  121.00000  14.03376             11.63475
1693.53636  1456.54091  220.00000  22.20662             12.69143
1693.09600  832.24800   250.00000  18.27853             17.47947
1695.65909  1624.83182  220.00000  22.25475             12.88888
1696.53074  1062.96440  309.00000  20.84104             19.29395
1696.39493  804.88768   276.00000  19.68611             17.88588
1697.29778  1036.76444  225.00000  18.63892             15.64977
1694.80392  1595.81699  153.00000  16.27394             12.12765
1696.74603  1557.09524  189.00000  19.61915             12.38990
1702.05000  595.76818   220.00000  22.31341             12.68834
1705.06044  1282.24176  182.00000  21.32278             10.90188
1705.20106  738.83069   189.00000  18.16980             13.41923
1705.78099  851.68595   242.00000  18.73482             16.60976
1705.03030  1550.50505  99.00000   14.25963             8.87633
1709.38919  1229.11351  185.00000  17.37193             13.81646
1711.54286  1034.77500  280.00000  23.03295             15.69762
1712.22086  1292.07975  163.00000  17.36291             12.17774
1713.76961  1460.92647  204.00000  19.23451             13.55598
1715.04603  1512.20084  239.00000  22.26895             13.90766
1717.29434  747.80377   265.00000  27.70207             12.72216
1722.22458  1544.83898  236.00000  20.34112             14.88487
1720.20606  1636.93333  165.00000  17.29062             12.23677
1717.86667  1729.67619  105.00000  13.52046             9.94829
1724.05519  1013.57468  308.00000  21.72578             18.53765
1721.18132  1528.34615  182.00000  17.70966             13.14214
1724.54455  789.27393   303.00000  20.95351             18.64153
1721.55455  840.74091   220.00000  19.30978             14.51181
1724.57082  1384.99571  233.00000  19.92406             14.98779
1724.11707  1499.29756  205.00000  21.24148             12.32102
1726.91124  605.79290   169.00000  17.79247             12.15921
1732.97561  1308.56707  164.00000  15.24081             13.87495
1733.92340  1615.48511  235.00000  19.85452             15.30285
1737.65476  843.75397   252.00000  23.27066             14.33547
1736.07345  1854.12429  177.00000  16.13804             14.03220
1737.74419  1676.33721  172.00000  19.05955             11.60622
1740.86928  1451.10458  153.00000  17.33825             11.44733
1741.64286  1278.16883  154.00000  16.95986             12.00200
1738.83978  1322.55249  181.00000  19.29667             12.95557
1740.10687  1646.67176  131.00000  15.11770             11.09668
1742.24576  1591.30932  236.00000  19.39873             15.81585
1744.40230  1789.35057  174.00000  25.72939             9.50348
1741.37255  163.49673   153.00000  16.38584             11.92798
1746.69403  757.88433   268.00000  21.47641             16.36636
1748.14029  599.25899   278.00000  22.11796             16.34688
1745.07229  1264.10843  166.00000  17.80102             11.91775
1745.53774  1659.39623  106.00000  12.68994             10.71662
1748.95480  146.51977   177.00000  16.27399             13.92147
1749.82283  1404.98819  254.00000  20.17216             16.24265
1749.65132  1531.56579  152.00000  15.42234             12.60869
1753.11321  1631.75472  212.00000  20.13653             14.07238
1757.47179  1599.75385  195.00000  22.35051             11.67973
1760.70750  1008.08000  400.00000  28.14186             18.49877
1755.70115  1300.14368  174.00000  17.54111             12.78552
1757.20091  1447.05936  219.00000  18.36918             15.99739
1764.78056  850.61111   360.00000  29.61882             15.86126
1760.18333  752.44167   120.00000  13.30556             11.63772
1764.88889  1282.61111  180.00000  18.74846             12.26424
1762.70213  1394.70922  141.00000  14.45871             12.49692
1761.98333  1663.27500  120.00000  13.12115             11.71129
1769.53696  605.04280   257.00000  23.60746             14.03188
1768.25446  694.79464   224.00000  19.28054             14.80517
1766.18605  1572.01744  172.00000  20.36277             10.88455
1768.18182  1771.42208  154.00000  15.91337             12.44660
1771.31667  1557.09167  240.00000  18.64466             16.45512
1770.84277  82.28931    159.00000  15.59394             13.03020
1771.83117  140.14286   77.00000   10.46225             9.62102
1773.01026  1615.79487  195.00000  17.76334             14.08597
1773.66463  1806.74390  164.00000  15.36514             13.60022
1780.48048  797.62763   333.00000  24.94616             17.30296
1778.79923  1335.44015  259.00000  24.58330             14.07460
1786.89899  1316.76768  297.00000  29.38220             13.15166
1783.07589  1368.06696  224.00000  20.67622             13.94535
1785.29524  618.31905   210.00000  20.32315             13.46685
1783.43005  1633.05181  193.00000  18.58747             13.33589
1785.27723  163.07426   202.00000  19.02665             13.61403
1793.21942  959.72302   278.00000  26.94487             13.93218
1789.63429  139.27429   175.00000  17.93211             12.45375
1789.98639  1411.69388  147.00000  17.34970             11.06886
1792.00000  768.75275   182.00000  16.99692             13.74713
1795.85511  937.13302   421.00000  33.07992             16.68081
1799.03409  1615.07955  176.00000  17.55649             12.79968
1801.68803  1583.39744  234.00000  21.60100             14.05287
1810.98930  626.97861   187.00000  21.19934             11.74921
1810.35028  1453.70056  177.00000  16.32817             13.79773
1815.26625  898.44582   323.00000  25.10091             16.82347
1812.87245  1192.75000  196.00000  18.67798             13.50115
1816.35329  1384.36527  167.00000  16.35871             13.11660
1816.93865  1831.46012  163.00000  16.53769             12.65549
1823.80984  1318.54426  305.00000  25.27035             15.90050
1820.95434  1204.86758  219.00000  18.25461             15.34173
1823.11273  1527.36000  275.00000  21.76572             16.22451
1833.35714  1351.17582  182.00000  17.76218             13.07763
1835.35312  1572.51335  337.00000  29.21224             15.67531
1845.58744  1275.48430  223.00000  18.31146             15.94242
1847.24590  151.95082   183.00000  16.73571             13.94769
1850.18455  1445.63948  233.00000  20.21084             14.77806
1852.24843  1240.16352  318.00000  27.88259             17.49793
1854.96629  1343.23034  178.00000  20.64796             11.09040
1857.74886  1580.65753  219.00000  20.46561             13.71227
1862.32353  1383.90441  136.00000  15.55194             11.46703
1873.47214  650.16422   341.00000  37.14934             12.52042
1864.74372  1285.60804  199.00000  17.23268             14.82589
1864.35897  1328.25641  156.00000  18.42446             10.82210
1862.98515  1554.35644  202.00000  21.87488             11.80737
1869.49077  1266.73432  271.00000  23.19762             15.13146
1865.78767  1407.89726  146.00000  14.17344             13.12861
1866.39752  254.09317   161.00000  15.55436             13.18632
1871.45339  1451.88559  236.00000  22.05369             13.77916
1874.40278  1425.16667  216.00000  17.49937             15.93477
1878.56316  134.54737   190.00000  18.31322             13.30848
1878.21714  1362.62286  175.00000  16.71985             13.36346
1879.61111  1400.92361  144.00000  15.77121             11.96199
1880.83938  1594.88083  193.00000  18.62771             13.27179
1885.95567  79.69458    203.00000  18.09418             14.33116
1894.38298  1313.85532  235.00000  22.41998             13.45216
1891.71951  43.43902    82.00000   13.62159             7.80008
1891.27368  97.43684    190.00000  20.81404             11.66541
1891.82500  1555.45833  120.00000  15.59538             10.29561
1898.79717  1286.73585  212.00000  23.52479             11.85678
1897.09259  1338.65741  216.00000  19.63420             14.33081
1899.01765  28.98824    170.00000  15.46430             14.06543
1902.87111  1389.59111  225.00000  21.14201             13.69620
1902.07143  242.85000   140.00000  17.02218             10.51684
1906.51942  1230.39806  206.00000  17.52844             15.01582
1905.05224  1305.23134  134.00000  16.61229             10.49935
1916.97059  1468.47059  306.00000  21.71154             18.40378
1921.72018  1179.44037  218.00000  19.56106             14.23847
1922.03182  1216.33636  220.00000  18.62315             15.50388
1921.80769  1237.04945  182.00000  16.78184             14.17405
1926.59504  1251.80992  242.00000  22.23202             14.09261
1929.30925  1268.70520  346.00000  29.74774             15.08554
1923.50000  1484.05970  134.00000  15.52420             11.09331
1928.44311  1039.04192  167.00000  16.73567             12.86150
1928.21277  251.47872   94.00000   12.21015             10.06626
1928.66901  1163.81690  142.00000  14.76747             12.31163
1930.42690  1335.39766  171.00000  19.03894             11.49738
1931.18343  1383.97633  169.00000  18.67628             11.59875
1932.09605  664.87006   177.00000  19.46337             11.71663
1934.31361  1188.69822  169.00000  17.20966             12.55018
1935.21970  1362.20455  132.00000  17.17711             9.82217
1935.60000  1419.13333  180.00000  18.47769             12.44711
1937.66822  679.55607   214.00000  17.21595             16.05614
1936.68812  1401.28713  202.00000  20.62354             12.79511
1943.05240  1150.64629  229.00000  25.65798             11.56820
1946.14094  1592.72483  149.00000  14.81487             12.86730
1948.01504  1328.27820  133.00000  13.90120             12.24483
1952.96104  1034.62662  308.00000  28.02303             14.36945
1953.48366  540.94771   153.00000  18.91872             10.51460
1955.61382  1202.96341  246.00000  22.61716             13.94092
1961.05778  1439.52889  225.00000  19.41877             14.90355
1967.07692  1462.03590  195.00000  18.21156             13.79254
1968.73333  1131.70000  150.00000  14.90210             12.87853
1966.97297  1335.31081  74.00000   11.21731             8.77148
1972.93333  674.68889   225.00000  21.59625             13.36928
1971.76682  1263.51121  223.00000  18.17633             15.71253
1972.68750  1309.57386  176.00000  16.50009             13.75126
1976.09794  1210.74227  194.00000  17.14875             14.51494
1987.17241  1292.86207  145.00000  17.20754             10.74612
1988.83832  688.33533   167.00000  19.31855             11.27348
1985.11881  1368.59406  101.00000  12.82559             10.05767
1989.18254  1230.93651  126.00000  14.38223             11.73983
1991.40777  1271.59709  206.00000  18.13691             14.48697
1990.54198  1095.05344  131.00000  14.33319             11.69121
1994.54930  1073.78873  142.00000  15.22374             11.86747
1997.36275  1415.67647  204.00000  17.74267             14.86164
2002.89340  1195.12183  197.00000  16.79619             15.19908
2005.44000  1213.53333  150.00000  23.82850             9.58439
2010.79672  1095.19344  305.00000  31.92376             12.89124
2018.82403  1159.37768  233.00000  25.49930             11.84101
2017.78333  1290.39444  180.00000  18.54742             12.38446
2025.52381  675.16270   252.00000  25.80435             12.62857
2035.23776  1445.23776  143.00000  14.49072             12.95988