# Filename: Nuclei_416_bidi_60x_008.npz
# Voxel size (nm): (108, 108)
# Area quantity: voxels
# Num nuclei detected: 638
Y           X           AREA       MAJOR_AXIS_LENGTH    MINOR_AXIS_LENGTH
4.71429     1279.33571  140.00000  15.39853             11.77426
9.13725     1097.05882  102.00000  14.11565             9.23333
71.29756    1161.14146  205.00000  17.84838             14.75692
73.29752    1238.92975  242.00000  21.12048             14.66204
102.76068   1167.65812  117.00000  14.97765             10.10855
130.25694   1174.38194  144.00000  16.64793             11.09106
182.73889   1513.20556  180.00000  18.50349             12.45207
193.78646   1334.33854  192.00000  17.40460             14.08959
193.30000   995.95000   80.00000   11.04325             9.23941
199.88372   1132.73643  258.00000  18.81579             17.50268
200.57895   1179.97571  247.00000  18.33929             17.32561
201.05825   1009.41748  103.00000  11.71444             11.18455
204.03500   1321.00500  200.00000  18.04206             14.27950
202.97143   992.27143   70.00000   10.16348             9.04420
206.22043   1395.06452  186.00000  17.89072             13.51791
204.80282   1377.69014  71.00000   11.14109             8.27176
217.16000   1355.40800  125.00000  13.21156             12.12921
232.06081   1004.92568  148.00000  16.75851             11.25044
232.22148   1015.73826  149.00000  17.07592             11.14676
235.64039   1106.92118  203.00000  16.28415             16.14002
250.41091   1135.49091  275.00000  23.93777             14.85066
251.68841   956.11594   138.00000  15.30814             11.50964
257.79439   1224.75701  107.00000  12.80129             10.75301
263.95425   1212.30719  153.00000  16.57777             11.86086
264.61047   939.77326   172.00000  16.59903             13.49981
266.62595   919.75573   131.00000  14.22672             11.74647
275.64253   1430.61086  221.00000  17.57863             16.37373
279.81034   1562.58621  116.00000  14.13588             10.52581
280.18248   1579.50365  137.00000  14.39544             12.79731
280.57407   925.37963   108.00000  12.53060             11.03519
285.55597   1193.11194  268.00000  20.70267             16.65764
290.94054   917.33514   185.00000  20.79573             11.46264
289.78500   1064.01500  200.00000  18.86042             13.54774
298.53107   1464.54237  177.00000  15.90616             14.25239
299.31250   972.53125   128.00000  13.56164             12.08320
301.32984   1163.52356  191.00000  17.70486             14.01244
305.15429   1494.77714  175.00000  15.20394             14.68553
307.90506   899.44304   158.00000  16.96028             12.00847
306.87234   1102.94681  188.00000  16.66773             14.39296
316.94969   1055.74214  318.00000  31.04108             13.52848
323.58442   981.91883   308.00000  21.43538             18.48955
323.90000   946.26923   130.00000  15.11689             11.00796
326.19691   1099.75676  259.00000  23.54064             14.03832
332.24464   1033.78541  233.00000  22.61191             13.39411
334.92562   896.13223   121.00000  13.51993             11.38290
339.55376   1060.79032  186.00000  17.43665             13.60695
346.92105   890.36842   114.00000  13.58966             10.83839
349.90083   876.32231   121.00000  14.85545             10.42765
347.40698   1197.54651  86.00000   12.03781             9.28300
354.98333   911.70556   180.00000  16.18899             14.16696
356.70833   886.30556   72.00000   10.58942             8.76282
366.60417   860.00000   48.00000   8.97689              6.77558
374.93416   793.42387   243.00000  22.58439             13.96017
376.68941   836.00000   425.00000  26.75762             20.38781
382.29050   1201.63128  179.00000  17.67412             12.91439
392.02941   857.99510   204.00000  19.93459             13.05831
391.26977   1050.36279  215.00000  20.43969             13.50315
395.58527   833.72481   258.00000  24.98057             13.30762
404.84416   1167.44481  308.00000  23.98792             16.47310
401.30719   1063.92810  153.00000  15.50226             12.66031
402.69456   1239.28033  239.00000  21.27210             14.42840
408.27523   1202.80734  218.00000  18.45795             15.10675
409.57055   785.19018   163.00000  14.62419             14.41293
411.30435   737.71739   46.00000   9.39503              6.27760
415.51942   1111.63107  206.00000  22.44923             12.13771
418.24324   1036.75290  259.00000  20.87988             16.02817
418.17829   1086.24806  129.00000  15.84162             10.45698
423.39855   782.74638   138.00000  14.75629             12.00543
426.94545   976.26061   165.00000  15.80408             13.66104
430.98444   730.03891   257.00000  25.97164             12.88555
428.40816   744.05442   147.00000  16.16172             11.61416
430.17012   990.60996   241.00000  19.83698             15.57140
429.58407   1245.65929  226.00000  22.10014             13.25259
430.30114   839.79545   176.00000  19.52969             11.63138
429.73196   1081.97938  97.00000   11.18555             11.09636
438.32068   1228.91983  237.00000  19.09350             15.97685
441.59447   889.26728   217.00000  18.55923             15.24794
439.58537   832.65854   41.00000   8.06790              6.50328
448.93284   1207.25746  268.00000  19.76211             17.47059
454.12195   1274.95470  287.00000  24.07634             15.55354
453.58491   1023.66038  212.00000  17.14900             15.88722
453.02564   773.79487   78.00000   10.27674             9.77502
464.01087   1009.41304  184.00000  19.72623             11.91877
462.57558   793.09302   172.00000  17.66114             12.58805
461.34579   712.63551   107.00000  12.59615             10.97785
468.71631   1180.07092  282.00000  22.81181             16.25369
469.47234   1035.01702  235.00000  25.21536             12.11570
465.76289   721.88660   97.00000   12.41197             10.13988
468.84459   860.36486   148.00000  17.68347             10.82140
467.31496   690.58268   127.00000  14.32125             11.31547
470.56436   763.03960   101.00000  14.71367             8.98903
474.53881   1065.87671  219.00000  20.01658             14.41970
480.83122   1133.44726  237.00000  25.80999             12.03767
476.30814   719.55814   172.00000  18.52997             11.86737
475.30000   1099.96667  150.00000  17.78701             10.87280
478.86977   1290.86512  215.00000  20.07723             13.68577
477.28205   1225.17094  234.00000  19.91773             15.26646
480.39560   1037.83516  91.00000   11.50098             10.49112
480.45055   859.21978   91.00000   12.02963             9.78972
483.83168   733.86139   101.00000  12.52745             10.34481
490.27500   1235.54167  240.00000  22.13132             13.92480
492.19251   890.97326   187.00000  17.13080             13.92439
494.98404   743.68085   188.00000  16.34740             14.81736
501.55172   918.80460   87.00000   12.72277             8.73659
502.12500   1092.10833  120.00000  13.66735             11.18179
509.21661   872.29242   277.00000  27.70922             13.40675
508.22759   907.94483   145.00000  16.05419             11.51338
515.00722   1131.43682  277.00000  25.15733             14.72383
512.18333   1024.36111  180.00000  18.42074             12.45467
515.37402   992.73622   254.00000  19.35778             16.94839
515.84483   669.85172   290.00000  22.10188             17.52508
513.81437   846.12575   167.00000  16.61669             12.83581
513.34579   921.30841   107.00000  13.30996             10.33498
516.66310   747.64171   187.00000  17.65806             13.53948
518.61538   1279.84163  221.00000  19.00324             15.16784
522.43137   1077.54248  153.00000  18.01694             11.09634
527.28906   1106.03125  128.00000  13.80686             11.78529
532.95436   934.89627   241.00000  22.32015             13.83467
537.42424   1271.41991  231.00000  20.03359             14.96264
536.42149   913.41322   121.00000  15.13926             10.23065
539.29444   1115.05000  180.00000  17.91338             12.83032
540.44402   1095.23552  259.00000  19.63061             16.85834
540.80702   737.60526   114.00000  18.85524             7.80383
549.76030   820.98502   267.00000  31.66020             11.22218
545.02381   1236.29167  336.00000  23.38542             18.40392
544.63380   948.33803   142.00000  14.88772             12.20316
551.64894   659.25000   188.00000  17.14292             14.03034
556.25725   979.30072   276.00000  24.65374             14.86969
562.49530   705.13793   319.00000  24.76673             16.65764
561.69767   1039.00775  129.00000  18.47497             8.96693
564.76718   1273.51527  262.00000  19.26963             17.63739
562.33594   1027.27344  128.00000  14.07089             11.74769
570.38361   1244.92787  305.00000  26.66437             15.23639
572.38558   643.31661   319.00000  24.38489             17.28290
573.26740   1107.23077  273.00000  22.33084             15.97332
571.16279   1031.50000  86.00000   12.65327             9.07493
580.78523   824.53020   149.00000  16.43180             11.65881
582.84305   1235.37220  223.00000  21.47053             13.35183
587.29834   1177.11602  181.00000  18.63679             12.52016
586.50909   1142.55455  110.00000  15.73265             9.00092
594.56654   814.75665   263.00000  28.46166             12.26216
593.96170   1102.12340  235.00000  19.16672             15.97110
588.24638   765.78261   69.00000   10.55807             8.39357
592.94030   970.61692   201.00000  20.12372             12.77879
594.94048   1153.57738  168.00000  17.86693             12.22220
598.85845   1085.27397  219.00000  23.59062             12.17481
599.98598   1037.05140  214.00000  18.97454             14.71461
604.77143   874.78367   245.00000  18.80271             16.68165
612.42759   1102.73793  145.00000  16.09971             11.65256
615.17680   638.22652   181.00000  19.82401             11.74438
620.49289   974.67773   211.00000  18.64865             14.47883
622.21053   1161.36842  171.00000  21.99124             9.98515
618.64407   867.57627   59.00000   9.58083              7.88817
628.18333   1098.50556  180.00000  22.93033             10.30510
626.09057   690.49434   265.00000  20.21763             17.03821
627.91753   962.23196   194.00000  18.70760             13.48784
627.48780   811.18293   82.00000   11.87065             8.81870
630.44512   913.82317   164.00000  17.73927             11.97921
631.00000   638.56250   192.00000  19.38634             12.93344
631.41706   945.57346   211.00000  19.42916             14.05940
636.05000   900.38000   100.00000  12.82126             9.95113
643.30131   677.68559   229.00000  20.06560             14.63847
645.08140   882.94186   172.00000  17.72385             12.81471
645.78027   1228.05381  223.00000  21.39634             13.43299
642.78667   829.68000   75.00000   11.79611             8.16692
650.60638   1159.16489  188.00000  29.65830             8.47165
647.87356   1214.33908  174.00000  18.58716             12.01949
649.01031   1113.55155  194.00000  19.13528             12.99099
662.34343   659.44444   198.00000  19.55115             12.91847
660.27059   859.30588   85.00000   12.33577             8.81084
669.75258   976.37629   194.00000  16.48787             15.09687
674.63158   1229.24737  190.00000  20.15768             12.04340
683.48810   1142.78175  252.00000  21.81446             14.84095
689.69540   1088.39080  174.00000  16.79042             13.39213
691.83534   1102.83936  249.00000  21.92793             14.57697
692.88793   1159.03448  116.00000  14.18754             10.39946
696.65625   909.11250   160.00000  15.85332             12.98766
701.65323   722.89113   248.00000  21.55680             15.35695
701.09890   1080.43956  91.00000   16.50401             7.27909
704.08421   856.93684   95.00000   17.35461             7.06870
705.60714   676.43304   224.00000  18.09304             16.08773
711.33333   982.00000   177.00000  15.87060             14.21372
720.25940   1213.65414  266.00000  24.45861             14.08848
723.30667   899.16000   75.00000   10.13522             9.40371
727.01619   1109.77733  247.00000  20.83873             16.02208
732.12847   980.32292   288.00000  22.30814             16.89750
734.01685   1137.91011  178.00000  17.67034             13.16389
734.18293   943.35366   82.00000   10.86776             9.63425
743.71338   837.37580   157.00000  15.41564             13.21289
752.25660   1119.57358  265.00000  26.86960             13.32247
748.14286   952.51429   70.00000   9.98104              8.92143
755.77368   717.76316   190.00000  20.90743             11.88294
760.58065   1160.82949  217.00000  28.91699             9.94982
775.24138   910.46552   58.00000   11.31986             6.52945
782.98529   889.85294   68.00000   13.53561             6.87468
787.61667   1152.01333  300.00000  32.22299             12.58644
786.95954   998.01156   173.00000  15.83297             14.02948
796.80153   1135.32061  131.00000  14.28896             11.74641
797.49315   899.19178   73.00000   12.48561             7.49519
799.74157   922.67416   89.00000   11.63172             9.76135
806.76703   1151.32616  279.00000  20.78995             17.40152
811.03922   1003.32843  204.00000  19.76414             13.36739
809.61856   723.08247   97.00000   13.00431             9.58508
822.42182   750.54545   275.00000  29.56906             12.18933
820.13961   822.30519   308.00000  22.23085             18.37100
816.63462   957.53846   104.00000  13.26841             9.99717
820.07634   1178.33969  262.00000  25.78519             13.96592
822.14058   770.20767   313.00000  21.70657             18.50923
821.13861   1121.68317  101.00000  11.83151             10.91656
833.78652   1108.64045  178.00000  21.74392             10.50200
830.50847   997.16949   59.00000   9.37802              8.18010
830.69565   737.78261   23.00000   6.21160              4.66760
838.00862   1121.27586  116.00000  18.38471             8.18477
839.12460   866.33227   313.00000  23.48088             18.14921
836.58974   1147.47436  78.00000   12.47245             7.97375
843.57205   993.03057   229.00000  20.11095             14.98565
843.32298   903.64596   161.00000  15.69523             13.10910
848.02532   917.32278   158.00000  16.41213             12.36789
846.36364   946.01515   66.00000   10.03583             8.36727
847.26415   1127.28302  106.00000  13.80800             9.91272
852.42960   1208.66065  277.00000  22.21702             16.07671
854.31673   1248.85765  281.00000  27.29477             13.59292
861.98712   500.77253   233.00000  19.15882             15.94537
856.34375   873.46875   32.00000   7.63773              5.40915
859.93939   1015.72727  66.00000   10.74140             7.83026
864.19626   1130.73832  107.00000  14.55925             9.37677
870.83730   1276.73413  252.00000  24.00964             13.44295
874.35294   773.63137   255.00000  25.00308             13.53153
878.61905   1114.08466  189.00000  21.11908             11.50903
873.92793   1011.17117  111.00000  13.93241             10.23345
879.77607   797.17791   326.00000  24.49099             17.24204
886.47258   527.23760   383.00000  36.22600             14.08235
889.95082   1004.00000  61.00000   10.03373             7.85151
900.32000   1004.64000  25.00000   6.58688              4.89296
916.64795   674.92603   730.00000  33.68744             28.51475
907.53073   702.25140   179.00000  20.15734             11.51955
913.81111   825.08889   180.00000  17.01915             13.68073
912.87770   836.81295   139.00000  14.69134             12.35907
919.14667   292.28000   225.00000  18.43241             15.77110
917.38562   729.66667   153.00000  14.89329             13.17232
919.01515   589.82576   132.00000  17.39443             9.95012
921.11613   715.00000   155.00000  16.10175             12.35295
927.11212   375.83939   330.00000  25.70444             16.97059
929.11245   576.71888   249.00000  23.57170             13.60901
929.34899   323.37248   298.00000  27.21661             14.12696
927.25758   772.30303   132.00000  18.81439             9.29500
930.17808   507.20548   219.00000  18.98305             14.84269
930.06915   542.36170   188.00000  17.29850             13.90380
932.93033   698.93852   244.00000  31.87761             10.99363
928.73333   851.96667   30.00000   7.35730              5.12977
935.18149   442.20641   281.00000  24.74847             14.87690
937.97925   612.29876   241.00000  21.88650             14.14134
934.82558   629.42442   172.00000  17.46268             12.87732
942.69057   470.51321   265.00000  24.12737             14.51047
936.75532   969.39362   94.00000   12.47603             9.68752
940.86364   664.31169   154.00000  15.87263             12.42640
943.75789   789.13684   190.00000  18.49134             13.48337
944.33514   872.78919   185.00000  19.73164             12.45717
949.23729   755.24294   177.00000  18.49150             12.27160
949.82237   859.87500   152.00000  15.99425             12.12469
953.11189   725.13986   143.00000  15.78553             11.54057
952.55224   746.58209   67.00000   12.27205             7.11887
956.98810   576.05952   168.00000  18.17335             11.91853
957.94884   602.61860   215.00000  18.93791             14.57842
960.06145   519.06145   179.00000  16.29996             14.19499
961.34839   716.92258   155.00000  18.61060             10.62170
962.64333   815.93667   300.00000  24.20760             16.26938
961.46281   464.82231   242.00000  25.84132             12.10271
964.76955   621.13580   243.00000  21.93869             15.01883
963.25778   675.26222   225.00000  24.51635             12.98284
963.12987   780.88312   154.00000  16.29260             12.11355
963.63380   856.35681   213.00000  23.78443             11.69069
963.55102   1012.97959  49.00000   8.38604              7.44459
978.79882   895.67160   338.00000  27.06354             17.67045
971.05960   884.58940   151.00000  15.25213             12.63899
977.60584   917.03650   137.00000  13.90976             12.57896
980.38690   933.85714   168.00000  15.11142             14.19824
982.26415   551.55975   159.00000  14.80941             13.73462
979.61111   1008.61111  54.00000   8.56637              7.96288
989.04000   749.16000   250.00000  21.69781             14.77517
986.50299   979.61677   167.00000  15.46678             13.94721
990.63584   653.34104   173.00000  16.30699             13.84204
991.17895   488.28947   190.00000  17.91223             13.76165
988.15966   842.78151   119.00000  15.93398             9.57564
988.46154   1042.63462  52.00000   8.98506              7.37155
1007.33007  721.13725   306.00000  41.42962             10.41740
999.64407   771.05085   177.00000  17.64242             12.84716
1000.30818  740.52830   159.00000  15.69856             12.95751
1007.98532  836.99347   613.00000  42.90455             20.67896
1001.87671  854.53425   146.00000  18.18675             10.23529
1001.11224  525.34184   196.00000  18.24805             13.84014
1003.56757  703.89865   148.00000  16.23018             11.65810
1006.47929  468.52663   169.00000  17.86785             12.45346
1003.58824  557.14118   85.00000   11.94093             9.07388
1004.33333  1052.55556  72.00000   11.34050             8.12467
1009.53275  746.38428   229.00000  21.94628             14.56856
1006.36957  876.23913   138.00000  15.72717             11.37463
1009.72222  891.35802   162.00000  18.69116             11.27204
1011.56118  445.10127   237.00000  22.68212             14.52998
1012.52252  636.41441   111.00000  17.41720             8.45618
1014.07519  696.47368   133.00000  14.62521             11.59926
1015.09032  598.56774   155.00000  14.99994             13.29023
1020.70707  629.21212   198.00000  20.47536             12.94588
1013.53571  1042.09524  84.00000   11.85173             9.14119
1015.42308  573.20513   156.00000  16.21171             12.28308
1021.99554  863.86161   224.00000  25.24761             11.44403
1020.38365  706.38994   159.00000  15.80962             12.83706
1024.32831  967.12952   332.00000  23.67252             18.54281
1015.95238  1099.07143  42.00000   7.77423              6.81843
1025.28346  566.00787   127.00000  14.32681             11.79113
1032.15341  555.50000   176.00000  17.55719             13.21176
1032.34034  427.28571   238.00000  20.20719             15.63037
1031.13504  466.18248   274.00000  28.12662             13.56505
1030.66667  818.46667   150.00000  15.14010             12.65629
1029.71264  410.87356   87.00000   13.41460             8.34806
1032.22378  724.13986   143.00000  15.40135             11.97692
1032.57333  520.24667   150.00000  15.68242             12.24154
1030.00000  700.86111   36.00000   8.11146              5.66726
1037.97436  875.64615   195.00000  25.37629             9.87821
1033.69466  938.12977   131.00000  15.90134             10.52137
1035.87037  788.15741   108.00000  12.64238             11.13990
1036.45299  910.21368   117.00000  13.26080             11.28196
1038.55844  952.22727   154.00000  16.91104             11.68607
1037.14545  509.49091   55.00000   10.17966             6.99858
1040.39873  407.10759   158.00000  15.95316             12.75209
1037.12245  1128.69388  49.00000   8.48004              7.35004
1040.90099  545.61386   101.00000  12.48372             10.47913
1038.61644  1049.06849  73.00000   11.20574             8.25631
1045.31250  796.21875   224.00000  17.82389             16.36794
1043.69461  644.58683   167.00000  20.12344             10.76352
1042.17073  672.81707   82.00000   10.82553             9.71051
1047.03830  686.84681   235.00000  18.44876             16.42862
1043.85417  1122.75000  48.00000   9.85828              6.20274
1048.78621  758.93793   145.00000  16.24764             11.37423
1050.51528  288.19214   229.00000  17.85003             16.35083
1052.12719  911.96930   228.00000  21.88073             13.36052
1052.19880  977.27108   166.00000  16.48398             12.90607
1051.86420  947.35185   162.00000  17.28050             12.07578
1056.60092  600.31193   218.00000  18.12063             15.54680
1054.10526  560.84211   95.00000   11.91111             10.50473
1058.30534  774.67557   262.00000  23.04884             15.24916
1055.52381  627.09524   63.00000   11.07124             7.24211
1057.20155  552.03101   129.00000  16.39780             10.74426
1064.56735  696.92653   245.00000  22.98502             14.60680
1063.97409  642.01554   193.00000  19.12648             12.92495
1067.11215  738.57009   321.00000  28.81339             15.70525
1059.89333  1143.09333  75.00000   11.13617             8.56880
1066.48223  653.92386   197.00000  20.78483             12.18448
1068.89222  887.59281   167.00000  21.10640             10.18475
1064.48684  760.55263   76.00000   11.05058             8.82256
1067.66477  974.41477   176.00000  16.35319             13.73862
1066.52593  582.45926   135.00000  17.63193             9.84679
1070.28295  473.90698   258.00000  19.59281             16.88277
1067.93333  422.57778   45.00000   9.03708              6.31286
1071.26087  1157.57609  92.00000   13.60407             8.88624
1077.33673  912.94898   294.00000  20.96165             18.10641
1076.31429  444.53571   280.00000  20.20890             17.73293
1075.84332  496.81106   217.00000  19.00735             14.71343
1076.85020  931.79757   247.00000  23.86651             13.52037
1074.48521  1006.41420  169.00000  15.61626             14.08467
1079.48875  317.71061   311.00000  23.87533             16.68267
1074.42593  1165.40741  54.00000   8.61439              8.14298
1080.27519  372.01938   258.00000  20.33730             16.25184
1083.03196  576.74886   219.00000  23.90897             11.88577
1079.07080  723.03540   113.00000  13.58139             10.60696
1085.02260  1062.38983  177.00000  22.87966             10.05758
1084.25472  344.02830   212.00000  20.07997             14.22092
1088.23701  680.77273   308.00000  27.81278             14.74095
1085.44776  398.53234   201.00000  17.46134             14.83698
1084.15385  1146.75148  169.00000  16.63728             13.20524
1088.23478  594.16957   230.00000  21.91941             13.43606
1090.29787  528.31489   235.00000  19.12580             15.92582
1088.33523  652.50000   176.00000  20.34402             11.34801
1090.72093  541.49612   129.00000  14.56324             11.41327
1091.90741  774.95062   162.00000  17.59672             11.90110
1091.65663  1629.95783  166.00000  15.82038             13.43052
1097.79422  492.45848   277.00000  21.66214             16.49800
1106.56794  621.99303   287.00000  31.01078             12.79479
1096.16667  1117.51042  96.00000   13.47572             9.07150
1097.67925  691.66038   106.00000  12.10679             11.27236
1097.08537  762.53659   82.00000   11.39195             9.32543
1098.47887  616.07042   71.00000   12.74092             7.10521
1106.03846  648.75175   286.00000  28.70587             13.20408
1099.47312  988.08602   186.00000  16.31645             14.64154
1101.06417  712.52941   187.00000  19.86982             12.15050
1098.71642  1164.61194  67.00000   10.82690             7.88963
1101.23602  453.29193   161.00000  14.92459             13.83112
1105.15075  305.72362   199.00000  17.27684             14.77964
1104.21333  757.01333   75.00000   11.31243             8.43750
1103.48299  844.38095   147.00000  17.97939             10.39852
1105.49123  323.89474   228.00000  24.45817             12.67149
1110.47771  525.48408   157.00000  21.25690             9.50520
1114.50362  876.70652   276.00000  32.88210             11.02031
1105.58621  1104.33333  87.00000   12.77061             8.70083
1109.53070  471.36842   228.00000  18.04150             16.32031
1107.86364  811.49242   132.00000  16.88452             10.11792
1107.32512  934.78325   203.00000  20.03051             13.09762
1105.62069  1149.20690  87.00000   11.58449             9.67560
1109.65193  799.51381   181.00000  20.54736             11.81147
1105.92500  1136.97500  40.00000   7.90591              6.37154
1110.41406  858.63281   128.00000  15.57332             10.55090
1113.69957  1006.09442  233.00000  22.54433             14.61270
1114.99454  277.71585   183.00000  16.68232             14.12254
1113.22930  760.79618   157.00000  19.29099             10.55686
1116.73750  865.46875   160.00000  18.95142             11.60713
1115.11538  917.23077   182.00000  18.32040             12.74263
1114.12245  376.32143   196.00000  21.89477             11.63876
1114.17949  842.22222   117.00000  12.79610             11.74139
1118.02439  293.84878   205.00000  18.13792             14.45216
1117.84615  604.41026   156.00000  16.60866             12.16358
1120.29747  954.77215   158.00000  17.30855             11.94250
1120.68984  711.45455   187.00000  17.51136             13.63365
1120.42289  502.06965   201.00000  19.79889             13.18413
1123.42697  669.61423   267.00000  20.85849             16.52374
1126.35813  251.04408   363.00000  23.14624             20.09339
1120.76056  1133.77465  71.00000   9.96602              9.13849
1129.37160  1097.93656  331.00000  23.65667             18.03313
1125.91176  585.05882   204.00000  18.19168             14.27533
1125.70370  1150.37037  54.00000   8.42478              8.15234
1129.52344  721.51562   128.00000  13.48115             12.23707
1132.71845  805.91586   309.00000  22.99315             17.46688
1131.31048  210.94355   248.00000  21.99187             14.39499
1131.31884  1138.02899  69.00000   10.64121             8.37664
1134.72539  763.65285   193.00000  17.96061             13.79351
1135.78049  708.52439   164.00000  17.19953             12.40301
1139.82511  651.16592   223.00000  19.34410             14.86974
1139.31492  636.41989   181.00000  15.45748             15.03205
1139.15789  989.32895   152.00000  16.20176             11.97383
1142.76101  439.86792   159.00000  19.50811             10.56524
1146.04230  735.09668   331.00000  26.01494             16.42559
1149.92763  941.65132   304.00000  27.73713             14.13064
1143.34921  977.63492   126.00000  15.39276             10.47423
1145.28409  465.52273   176.00000  16.63839             13.59982
1147.44762  762.88571   105.00000  14.84881             9.03447
1146.37168  845.20354   113.00000  13.96283             10.39945
1152.26549  609.64602   226.00000  21.62748             13.49615
1150.69512  749.78049   164.00000  20.67832             11.20986
1150.89375  853.96250   160.00000  18.34068             11.30117
1152.49500  552.95500   200.00000  20.20669             12.96984
1152.19205  966.47020   151.00000  16.50950             11.79393
1152.81006  681.41341   179.00000  16.29551             14.03007
1153.85204  989.69898   196.00000  20.45907             13.59598
1157.13300  621.74877   203.00000  20.79907             12.78845
1156.56995  439.87047   193.00000  18.11708             13.73565
1159.86466  1131.96241  133.00000  15.22833             11.15680
1159.13636  1519.10227  88.00000   10.75666             10.46259
1164.05422  701.40964   166.00000  18.98485             11.35305
1162.32110  692.00917   109.00000  14.18070             9.96738
1161.87970  837.38346   133.00000  15.97589             10.67878
1164.01439  600.94245   139.00000  14.22112             12.54195
1169.71951  934.14228   246.00000  25.96601             12.50775
1161.47368  983.49123   57.00000   10.11642             7.33869
1170.56809  675.55253   257.00000  22.23082             14.80428
1169.87013  656.98268   231.00000  18.78403             15.72470
1176.06688  615.00000   314.00000  22.72429             17.99275
1172.36000  845.22000   150.00000  15.92077             12.34184
1171.67442  736.48837   86.00000   11.29847             9.80008
1180.52020  984.97980   198.00000  22.19808             11.51019
1177.86000  1478.31000  100.00000  12.55257             10.14011
1182.87330  379.93213   221.00000  22.72964             12.80948
1184.79907  860.43925   214.00000  23.92729             11.55459
1184.38693  362.72864   199.00000  17.92717             14.38410
1183.40517  700.03017   232.00000  19.20209             15.60340
1194.61024  564.63386   254.00000  38.23470             9.15250
1189.95000  771.97500   240.00000  25.22691             12.39165
1184.32812  742.56250   64.00000   10.05163             8.24194
1194.56223  873.56652   233.00000  23.40554             13.61883
1197.14888  996.81180   356.00000  25.41095             19.14617
1197.70943  782.72075   265.00000  27.64140             12.83730
1199.48289  722.40304   263.00000  22.96639             16.22449
1196.42012  667.78107   169.00000  15.74122             13.79763
1201.42162  746.12973   185.00000  20.37689             11.89156
1201.83654  960.90385   208.00000  23.89957             11.17365
1202.02874  950.65517   174.00000  21.22237             10.78179
1199.32331  1402.24060  133.00000  17.58476             9.95010
1210.39744  637.85897   156.00000  14.90619             13.38909
1210.38298  702.12057   141.00000  16.36276             11.08478
1211.68750  1356.06250  128.00000  13.66145             12.18564
1213.71756  661.15267   131.00000  18.08110             9.53763
1211.83721  1225.60465  86.00000   11.01995             9.94443
1216.74648  563.00704   142.00000  18.83942             9.67015
1216.04790  314.28743   167.00000  16.98012             12.80132
1216.18898  593.52756   127.00000  14.57831             11.13516
1217.63158  652.70175   114.00000  13.15886             11.11757
1223.98058  775.06311   206.00000  25.34107             10.62756
1221.15033  857.94771   153.00000  16.70951             11.71870
1223.62736  600.94340   212.00000  22.42881             12.59964
1225.34340  629.64528   265.00000  20.31712             16.68288
1223.32847  582.05109   137.00000  14.77875             11.84185
1234.78680  659.09645   197.00000  16.91289             14.89121
1239.41714  714.45143   175.00000  18.33271             12.20743
1242.36765  768.16176   136.00000  17.93458             9.78620
1241.67347  836.29252   147.00000  17.70362             10.61494
1244.23618  646.89447   199.00000  21.43191             11.86797
1241.90909  680.25000   44.00000   7.99456              7.03564
1249.03871  591.24839   310.00000  29.29497             14.61396
1250.60140  554.19580   286.00000  21.68498             17.61767
1251.45494  701.91416   233.00000  24.08560             12.52395
1251.93644  821.64831   236.00000  18.87014             16.12167
1255.32044  686.16575   181.00000  18.50173             12.52274
1253.94211  738.12632   190.00000  16.29708             14.93676
1254.90909  614.81818   176.00000  18.26037             12.46404
1265.30415  625.94470   217.00000  21.49275             13.03445
1262.67470  674.36145   83.00000   13.22471             8.00141
1258.84211  699.15789   19.00000   5.27157              4.50054
1262.67708  588.33333   96.00000   12.82822             9.75486
1270.15589  761.92776   263.00000  23.24566             14.74149
1277.54934  688.27632   304.00000  22.45692             17.38435
1276.32020  706.37931   203.00000  21.43049             12.07218
1277.50714  596.30000   280.00000  21.64343             16.72487
1279.37755  933.46939   196.00000  20.58452             12.36280
1282.98901  574.31868   273.00000  25.42628             13.88896
1289.42857  774.50476   210.00000  26.41164             10.30673
1286.90179  651.27679   112.00000  12.35988             11.69232
1288.15827  668.97842   139.00000  13.98214             12.79858
1288.78707  723.99240   263.00000  21.25360             15.88358
1296.89015  738.79545   264.00000  21.10676             16.26316
1293.06040  758.59732   149.00000  16.25149             11.68151
1293.53659  971.06707   164.00000  16.48122             12.71385
1297.68981  541.11111   216.00000  17.97284             15.69322
1295.78400  643.56800   125.00000  14.67534             11.10414
1296.56881  657.59633   109.00000  14.27340             9.88047
1302.34562  687.91705   217.00000  20.73226             13.46253
1303.26786  794.21875   224.00000  19.17243             16.19096
1306.56500  631.01000   200.00000  17.35554             15.68171
1308.15646  781.33333   147.00000  17.41903             10.81381
1308.38389  819.29858   211.00000  19.77784             13.64584
1318.29648  724.54774   199.00000  18.76474             13.95287
1318.56180  549.00562   178.00000  15.78266             14.54527
1322.07759  676.51293   232.00000  21.04320             14.12196
1322.33775  817.15232   151.00000  15.37046             12.63927
1331.96137  734.09442   233.00000  25.70956             11.91971
1326.84043  966.85106   188.00000  18.64623             13.00011
1327.38583  634.78740   127.00000  13.44181             12.15744
1330.00791  790.19763   253.00000  24.23708             13.43294
1332.30049  691.84729   203.00000  20.62468             13.01748
1335.19677  586.57742   310.00000  23.54425             17.28764
1335.16034  705.46835   237.00000  20.82560             14.63054
1338.12428  512.10405   346.00000  24.90739             18.11235
1336.61493  661.77015   335.00000  28.90037             15.12688
1340.07514  980.34682   173.00000  20.72330             10.76809
1342.00746  635.61194   134.00000  16.08060             10.72399
1344.79054  867.11486   148.00000  16.85208             11.23999
1349.40625  846.37500   224.00000  21.80441             13.34830
1349.92500  760.78000   200.00000  20.11348             12.72884
1352.46939  623.72789   147.00000  16.72715             11.28041
1356.35220  777.06918   159.00000  14.86353             13.69967
1367.38182  565.70909   275.00000  23.59111             15.00564
1364.65072  583.66029   209.00000  16.92090             15.75985
1367.70556  826.89444   180.00000  16.81765             13.71622
1368.88636  795.47727   176.00000  16.38177             14.12171
1370.15972  773.96528   144.00000  16.70027             11.13584
1372.21714  542.84571   350.00000  24.16177             18.86703
1368.75325  673.03247   154.00000  14.96799             13.12900
1370.46111  984.08889   180.00000  19.38500             11.91749
1372.18983  721.24746   295.00000  31.27039             12.43600
1377.01274  618.95541   157.00000  17.38619             11.65335
1381.44509  855.68208   173.00000  20.25834             11.22668
1382.67333  981.66000   150.00000  16.28476             12.04643
1384.57088  878.22222   261.00000  24.92026             13.63941
1391.98305  566.79661   236.00000  21.87873             13.83598
1395.47904  862.24551   167.00000  16.77493             13.10124
1391.17857  837.60714   28.00000   6.37217              5.54090
1399.57658  987.50901   222.00000  18.14011             15.72265
1402.75806  636.68548   124.00000  14.89529             10.84784
1406.56808  796.65728   213.00000  21.39479             12.69836
1405.72611  781.30573   157.00000  15.11135             13.42243
1407.52610  509.31325   249.00000  22.22457             14.34142
1410.34237  865.66780   295.00000  21.52923             17.83380
1411.68902  622.76220   164.00000  19.65578             10.72395
1416.68224  913.56075   321.00000  22.50447             18.35337
1415.60905  479.87654   243.00000  18.86055             16.48574
1414.32090  771.14925   134.00000  15.85211             11.06652
1418.11111  534.83704   270.00000  21.45548             16.40831
1419.34694  749.83163   196.00000  18.44158             13.62988
1420.75630  781.52941   119.00000  14.28817             10.72311
1426.26749  767.70782   243.00000  23.29255             13.63606
1428.90476  1007.80952  42.00000   7.87436              6.79862
1435.72650  869.09829   234.00000  19.25370             15.87058
1439.04603  889.28033   239.00000  18.04034             17.07134
1440.90351  1013.41228  114.00000  15.33675             9.60737
1442.87793  1156.44601  213.00000  17.62338             15.49632
1444.73184  1120.74302  179.00000  17.58460             13.16819
1444.92135  909.03371   178.00000  16.07271             14.20477
1444.84524  1181.38690  168.00000  17.63665             12.61815
1450.88889  1066.56379  243.00000  21.21329             14.76138
1454.28481  1014.08861  158.00000  16.27222             12.54536
1453.65116  1174.27132  129.00000  13.74711             11.94889
1455.62661  1230.99571  233.00000  20.04644             15.28314
1455.94118  1116.57466  221.00000  22.23901             12.92921
1461.51143  648.12857   350.00000  24.33887             19.05702
1458.02094  941.25131   191.00000  18.26172             13.41036
1456.90270  1153.07027  185.00000  17.50162             13.51728
1456.48333  1096.05000  60.00000   9.45836              8.07227
1463.97638  501.93307   254.00000  23.56902             14.07557
1465.19620  514.96203   158.00000  16.48576             12.38562
1477.10833  817.49167   240.00000  22.55030             13.87427
1474.22373  1027.53898  295.00000  22.98107             16.80540
1476.85000  967.93182   220.00000  19.71037             14.48302
1478.25221  932.00885   226.00000  21.12208             13.79199
1485.54245  511.24057   212.00000  18.05870             15.01271
1497.45151  922.09699   299.00000  23.58397             16.81882
1498.89437  669.43662   284.00000  24.87651             14.57427
1497.46409  1043.75691  181.00000  15.73095             14.77910
1501.16016  1004.16406  256.00000  19.27802             17.40559
1511.57073  951.19024   205.00000  17.42071             15.04323
1515.09859  659.65845   284.00000  22.97557             16.33331
1529.67788  463.84135   208.00000  18.09840             14.85573
1532.64981  968.29572   257.00000  23.50177             14.09288
1538.22172  682.04525   221.00000  20.74251             13.85335
1545.18681  454.42857   182.00000  16.69670             13.92950
1562.40690  679.49310   290.00000  28.21434             13.74464
1564.55102  440.87347   245.00000  20.89714             15.00338
1567.87879  985.22348   264.00000  23.95286             14.07606
1586.84470  440.79924   264.00000  26.88108             12.76411
1585.30201  683.50336   149.00000  14.08599             13.49091
1590.35714  995.75564   266.00000  21.92886             15.51064
1608.36328  697.28125   256.00000  28.22354             12.41943
1616.86264  1032.08791  182.00000  18.73301             12.53174
1628.10672  1011.06719  253.00000  23.87756             15.33948
1634.51364  1026.20909  220.00000  18.44782             15.40227
1647.18148  1051.51852  270.00000  24.46421             14.75100
1649.04124  704.85567   194.00000  17.50611             14.19090
1665.66667  984.10959   219.00000  20.82893             13.44373
1665.86667  1057.96667  150.00000  17.46879             10.98510
1677.57803  959.45087   173.00000  16.88684             13.27583
1715.81639  955.65902   305.00000  26.15293             14.91742
1726.69340  1099.16509  212.00000  21.50808             12.63979
1728.52174  1127.45652  276.00000  22.48409             16.05223
1741.18041  1107.87113  194.00000  16.23715             15.25526
1746.69340  946.32075   212.00000  18.96884             14.26352
1754.10244  1134.45854  205.00000  23.53818             11.15052
1776.70954  1150.94606  241.00000  18.14470             17.19391
1778.14444  1165.33889  180.00000  17.71579             12.98125
1833.43617  1188.74823  282.00000  24.72104             14.66275
1865.82500  1197.34583  240.00000  20.88105             14.67576
1881.86842  1223.92105  190.00000  20.11521             12.10704
1908.22064  1236.67616  281.00000  21.53051             16.96139