# Filename: Nuclei_416_bidi_60x_013.npz
# Voxel size (nm): (108, 108)
# Area quantity: voxels
# Num nuclei detected: 793
Y           X           AREA       MAJOR_AXIS_LENGTH    MINOR_AXIS_LENGTH
32.02740    1444.43836  146.00000  15.62375             11.95612
80.83537    1162.48780  164.00000  19.10367             11.09071
79.30872    1210.77852  149.00000  14.96538             12.79194
96.95098    1143.80392  102.00000  15.91444             8.19603
100.81366   611.20497   161.00000  20.36561             10.20117
101.25234   1240.80374  107.00000  12.83286             11.00385
104.91892   1203.86486  74.00000   10.30897             9.37669
121.42373   1066.29661  118.00000  14.45644             10.55826
121.66434   1167.30070  143.00000  15.37515             12.09369
132.87421   1218.82390  159.00000  16.07232             12.75805
137.80702   1152.83509  285.00000  23.88661             15.28280
148.01744   1420.58721  172.00000  20.31665             10.91788
150.76699   1078.82039  206.00000  22.92401             11.53543
149.19095   1252.55779  199.00000  17.94200             14.16630
154.22222   600.68803   234.00000  22.77539             13.37535
165.77381   585.60714   252.00000  22.51521             14.28951
159.52542   1126.06780  59.00000   9.07372              8.41048
166.71053   1312.05263  228.00000  23.46939             12.56893
168.44724   1096.71859  199.00000  20.69545             12.32862
172.57333   1080.48000  225.00000  18.46608             15.58561
177.93023   1434.10465  172.00000  16.95471             12.93655
179.50000   1168.41250  80.00000   10.97545             9.37108
182.05755   1253.72662  139.00000  16.05250             11.35703
193.93631   1057.86624  157.00000  14.95678             14.39195
226.32673   1191.14851  202.00000  18.58920             13.96263
223.29508   1804.60656  61.00000   10.95975             7.23023
225.97059   1180.23529  102.00000  13.82404             9.41401
239.73529   586.79412   170.00000  17.06895             12.86051
241.20000   1179.30526  95.00000   12.08184             10.02435
241.77922   1516.46753  77.00000   10.66400             9.55241
242.65217   1598.45217  115.00000  14.04742             10.59131
259.68690   1054.67093  313.00000  24.12252             16.64374
258.26582   1180.22785  158.00000  16.60226             12.21220
264.45149   1144.86194  268.00000  22.65018             15.17460
269.55507   1289.37885  227.00000  22.28659             13.11060
265.66000   1523.84000  100.00000  12.43472             10.27222
270.19209   1204.50847  177.00000  16.65117             13.72037
278.17323   1502.37795  127.00000  13.99308             11.58786
282.44643   1516.02679  112.00000  14.67858             9.72753
289.69397   1481.27586  232.00000  25.15384             12.16336
287.21302   1131.71598  169.00000  16.78595             12.88097
290.44144   1217.65766  111.00000  14.19985             9.95494
299.11207   1318.17241  232.00000  31.54595             11.42460
296.28000   1199.98667  225.00000  18.74594             15.31561
307.90977   1662.48120  133.00000  15.90749             10.72784
314.68023   1310.86628  172.00000  17.35419             12.65566
331.60751   662.90785   293.00000  29.81545             12.68205
324.11290   1227.53226  62.00000   10.65476             7.46156
329.08494   1499.98456  259.00000  19.20734             17.33102
331.94792   1606.40104  192.00000  21.63586             11.33680
329.94444   647.38889   162.00000  17.34405             11.93081
332.85317   1465.23016  252.00000  20.67972             15.59145
338.11957   1215.03986  276.00000  27.36388             13.16809
337.18410   735.20084   239.00000  19.08308             16.01789
340.00866   1122.74459  231.00000  21.53502             14.04611
339.57021   705.78298   235.00000  18.36728             16.33812
339.78286   559.97714   175.00000  16.83137             13.32879
346.63448   677.48276   145.00000  14.84383             12.50438
349.94472   605.57789   199.00000  17.92305             14.18206
352.21277   1775.97163  141.00000  15.94157             11.32349
352.76233   1227.99103  223.00000  19.31556             14.80863
355.82805   1100.89140  221.00000  18.72632             15.14733
357.83643   764.79554   269.00000  20.56065             16.92360
357.39535   589.98256   172.00000  17.48060             12.53524
361.19574   1476.77021  235.00000  21.90237             13.72009
362.37931   530.16379   232.00000  20.59144             14.39418
364.98571   620.69524   210.00000  19.20488             13.97847
366.09174   778.93578   218.00000  19.26946             14.62470
372.56981   637.80755   265.00000  23.67557             14.39145
375.74074   1100.48148  189.00000  17.82331             13.57557
382.78082   1571.36073  219.00000  19.21431             15.04622
385.50207   525.87967   241.00000  19.82146             15.65573
389.01005   1367.04523  199.00000  17.13807             15.04035
399.46429   515.77273   308.00000  21.48331             18.47455
413.79710   686.95652   276.00000  26.65968             13.23123
420.02844   1579.85308  211.00000  21.57930             12.52047
422.18391   77.62069    174.00000  16.74823             13.35840
430.08638   620.77409   301.00000  23.34540             16.72356
433.82840   52.53846    169.00000  16.11759             13.45475
432.95620   1747.32117  137.00000  13.88256             12.63707
436.70861   683.23179   151.00000  16.79833             11.44850
442.85398   1260.03982  226.00000  23.25468             12.52623
446.91398   609.55914   186.00000  18.72349             12.77467
455.22642   1728.04245  212.00000  17.78877             15.28821
458.71806   542.69163   227.00000  20.45395             14.24476
457.15493   56.31690    142.00000  14.87121             12.31785
470.07380   533.69373   271.00000  27.40337             12.96030
469.84831   605.18539   178.00000  19.17711             11.83573
474.15961   695.11401   307.00000  27.72199             14.44645
475.42231   591.31076   251.00000  21.94124             14.69315
472.36567   1702.82836  134.00000  16.09761             11.07852
476.24201   1619.53881  219.00000  19.62054             14.26527
478.46512   521.41860   43.00000   8.94756              6.10009
489.81818   1721.97521  121.00000  13.63930             11.30242
491.69697   546.70455   132.00000  13.71312             12.54300
499.44318   592.66477   176.00000  15.34771             14.63365
512.44286   702.62381   210.00000  18.13743             14.80646
524.71326   590.71326   279.00000  24.83756             14.40997
522.20737   565.94470   217.00000  18.67926             14.83016
533.23223   701.18009   211.00000  17.42565             15.53433
543.85366   490.81463   205.00000  19.49901             13.40727
545.18447   50.45631    206.00000  16.74638             15.68480
547.57848   1688.34978  223.00000  21.04594             13.67853
548.37288   1705.92797  236.00000  20.90296             14.54435
547.01778   471.17333   225.00000  20.08007             14.36549
549.28740   439.64567   254.00000  20.87118             15.79571
555.58621   62.98621    145.00000  15.43611             12.08609
558.41880   512.65812   234.00000  18.30562             16.38184
561.54545   575.46591   264.00000  19.38227             17.44698
562.63043   492.42391   92.00000   12.41842             9.53851
564.33036   712.75893   112.00000  15.74348             9.13602
569.31349   728.27778   252.00000  21.13624             15.38217
578.96419   604.01535   391.00000  30.49948             16.59901
572.58273   707.75540   139.00000  15.14543             12.03692
573.62150   396.57477   214.00000  18.62783             14.67294
577.33158   531.12632   190.00000  19.55211             12.41881
576.87970   1692.97368  266.00000  20.17424             16.88634
578.33108   488.67568   148.00000  14.65732             12.95300
580.25000   581.13830   188.00000  16.17922             15.02308
579.68000   1638.22000  100.00000  12.73201             10.03808
578.50000   633.37500   32.00000   6.77872              5.98323
585.36310   519.39881   168.00000  15.86312             13.49048
588.92488   382.16901   213.00000  19.11452             14.27508
589.09392   496.18232   181.00000  16.56707             14.17637
589.23111   565.53333   225.00000  20.07897             14.29710
593.25957   704.34468   235.00000  19.69660             15.23745
592.19760   400.50898   167.00000  17.31826             12.34156
598.78960   649.13861   404.00000  35.27979             15.63140
598.09605   1652.26554  177.00000  18.25349             12.41095
596.74167   60.26667    120.00000  13.87860             11.05044
597.59903   581.04348   207.00000  17.30860             15.49546
606.14286   1154.75940  266.00000  21.51236             15.89709
608.67376   453.70213   282.00000  26.73850             13.59602
612.19461   531.66168   334.00000  25.40639             17.42822
610.49767   1641.09302  215.00000  17.09967             16.12690
610.23370   351.98913   184.00000  17.91227             13.16504
614.52459   548.83060   183.00000  16.86102             13.88091
618.80460   60.42912    261.00000  19.97341             16.95486
616.80315   369.86614   254.00000  20.81169             16.03093
618.69663   405.83708   178.00000  18.66269             12.33649
618.93796   498.29562   274.00000  23.14188             15.12529
621.64417   588.67485   163.00000  16.65995             12.49116
621.51613   349.04839   124.00000  14.59844             10.90156
638.15082   1128.14098  305.00000  23.76090             16.51894
642.62703   481.59189   370.00000  29.80368             16.35671
637.53153   701.26126   111.00000  15.22586             9.30573
651.04545   732.68636   220.00000  28.16333             10.83017
647.95146   112.39806   206.00000  18.44605             14.29255
647.99432   379.14773   176.00000  17.61068             12.81922
650.35758   142.98182   330.00000  25.61697             16.60517
650.54959   358.76446   242.00000  20.35076             15.23677
652.04054   529.22973   222.00000  20.72237             13.68832
652.61017   392.98305   177.00000  18.17933             12.51630
653.80531   72.07522    226.00000  19.83813             14.53525
655.26484   506.47032   219.00000  19.15328             14.60084
656.05263   1391.16228  228.00000  19.16159             15.15821
659.24380   1698.40083  242.00000  19.74069             15.74718
658.11979   326.62500   192.00000  17.39629             14.07621
658.99029   342.64563   206.00000  16.86042             15.66912
660.19139   551.21531   209.00000  22.49105             11.86857
658.82927   1615.13171  205.00000  18.04284             14.51508
661.44554   455.08911   303.00000  26.47465             14.86043
660.27219   574.13609   169.00000  15.49893             14.00611
667.33735   1401.15060  166.00000  22.25271             9.70316
665.92810   1659.38562  153.00000  16.31580             12.12083
665.03571   1133.01786  56.00000   9.25641              7.76488
669.89655   563.05419   203.00000  16.54927             15.76278
675.94083   427.32249   338.00000  22.63878             19.07916
677.48364   1599.40364  275.00000  22.74816             15.87717
679.15196   65.88725    204.00000  16.94656             15.40327
680.71127   274.08099   284.00000  26.97442             13.52769
688.11228   1104.57193  285.00000  27.67319             13.16513
684.63918   1116.29897  97.00000   12.25544             10.04845
689.37220   585.44395   223.00000  19.90407             14.48305
687.81081   775.32432   74.00000   11.36811             8.31619
690.21053   799.94737   19.00000   5.31381              4.54908
697.73770   570.71311   122.00000  14.19246             11.09537
699.15695   1708.70852  223.00000  19.75567             14.58286
703.21774   318.05242   248.00000  21.39966             14.86369
704.89020   344.98431   255.00000  24.18333             13.64670
706.56410   492.40513   195.00000  17.42731             14.35510
715.20000   796.76129   310.00000  22.40681             18.78149
712.20779   368.36364   231.00000  20.81177             14.31414
717.49451   590.64835   364.00000  22.74046             20.48994
717.65094   504.93868   212.00000  19.68484             13.91102
720.05882   331.50980   204.00000  20.97022             12.41586
722.09655   354.22759   145.00000  16.44478             11.32034
723.74566   1394.10405  173.00000  16.63772             13.51818
720.90686   1710.24020  204.00000  21.03752             12.51697
726.05140   566.81776   214.00000  18.77233             14.61013
728.17391   366.39130   115.00000  14.50114             10.10899
731.99519   483.57212   208.00000  17.51364             15.21753
739.81865   364.56477   193.00000  18.82655             13.15250
745.63722   1378.62776  317.00000  30.53318             13.85032
739.54146   1394.78049  205.00000  17.11532             15.46621
740.67054   605.41860   258.00000  19.40434             17.00390
742.27451   576.58170   153.00000  15.30049             12.80960
744.27941   1623.11029  136.00000  14.19329             12.28297
745.61667   1710.01111  180.00000  19.37991             11.88553
746.15789   1728.82018  228.00000  18.66059             15.99526
753.53247   1610.10823  231.00000  26.85685             11.52049
750.74093   1658.30570  193.00000  19.02619             13.19894
746.00000   800.21951   41.00000   8.19933              6.39360
754.28753   1103.01272  393.00000  27.60228             19.05409
754.64220   489.91284   218.00000  18.66390             15.46179
758.53414   468.54618   249.00000  21.73735             14.68536
756.34177   581.91772   158.00000  17.22663             11.73980
751.95238   633.07143   42.00000   7.77423              6.81843
764.74132   346.74763   317.00000  27.21467             15.17545
758.45752   1630.16993  153.00000  16.96795             11.53524
761.85644   1688.64851  202.00000  21.26924             12.20153
761.64141   1755.62121  198.00000  17.90005             14.11364
762.75439   632.75439   171.00000  15.44983             14.21075
764.65672   1401.08458  201.00000  17.09315             15.00492
766.30705   533.53527   241.00000  18.48976             16.62631
768.57647   1663.58824  170.00000  18.82558             11.60590
768.27119   620.24294   177.00000  16.62384             13.55430
766.26316   655.55263   38.00000   7.79471              6.23957
771.69421   1617.28926  121.00000  13.72099             11.38828
786.00668   579.88641   449.00000  35.52531             16.21677
776.07971   1742.92029  138.00000  15.95101             11.15761
780.07042   519.27700   213.00000  18.67410             14.68861
781.69945   465.18033   183.00000  16.09220             14.77164
780.70323   1624.29677  155.00000  17.13859             11.57161
780.26087   1705.51304  230.00000  22.67735             12.95690
780.66667   1757.28369  141.00000  15.27362             11.88204
780.46939   618.75510   49.00000   8.82149              7.06693
784.77381   1396.40476  168.00000  16.22410             13.22356
787.06952   360.88235   187.00000  16.70519             14.39535
792.54959   1108.14463  242.00000  20.86314             14.78971
807.29491   819.45040   373.00000  44.46258             11.59257
791.61261   1409.25225  111.00000  13.48432             10.76434
795.77041   1651.36735  196.00000  20.87416             12.01536
794.02920   468.81022   137.00000  13.75816             12.80592
802.08901   457.07853   191.00000  16.27491             15.01522
806.17178   1612.12883  163.00000  15.04289             13.85701
813.64561   1096.44561  285.00000  24.83040             14.96163
814.43128   493.84834   211.00000  21.08907             13.05556
813.82273   354.13636   220.00000  19.47459             14.55067
815.59574   578.42199   282.00000  21.01643             17.62639
817.41797   541.77344   256.00000  19.74598             16.60323
818.22699   1602.61963  163.00000  16.44573             12.67890
819.71345   610.74269   171.00000  16.28314             13.50745
821.37719   506.28509   228.00000  18.62405             16.20341
824.57143   1684.42857  252.00000  20.97236             15.46722
824.54167   523.37500   24.00000   5.99090              5.14762
834.90449   477.23034   178.00000  16.20447             14.01660
838.16547   329.41007   139.00000  15.15326             11.84060
839.37083   497.42083   240.00000  20.63444             15.51298
839.92395   595.32319   263.00000  21.78260             15.43629
840.15455   1504.47273  220.00000  19.41627             14.57257
846.31111   72.30794    315.00000  26.75733             15.97344
843.00000   512.97368   266.00000  21.01486             16.40248
848.44402   1097.78378  259.00000  20.66440             16.06067
848.35577   1394.69712  208.00000  18.74304             14.16027
848.40476   1460.97024  168.00000  16.37211             13.10342
848.48168   1477.00524  191.00000  18.68853             13.10890
850.69655   323.33103   145.00000  15.72662             11.89082
851.16055   1558.76606  218.00000  19.15275             14.73040
850.94156   471.22727   154.00000  14.84813             13.28030
855.85348   612.40293   273.00000  22.25252             15.65358
853.50000   1652.05844  154.00000  16.93109             11.69239
854.91534   1535.85185  189.00000  18.48555             13.05740
862.67755   1700.48571  245.00000  23.34441             13.57068
860.31349   1439.02381  252.00000  20.47650             15.82909
859.67262   1617.58929  168.00000  16.56057             13.00550
866.64179   328.45149   268.00000  23.88194             16.59107
858.00000   806.11475   61.00000   9.90668              7.86824
865.37736   787.72642   318.00000  21.62943             18.77473
873.50730   1400.72263  274.00000  34.65993             10.51923
863.90909   1666.20130  154.00000  14.80102             13.29364
865.20000   443.47442   215.00000  18.18963             15.14468
869.58079   600.56332   229.00000  20.55568             14.22107
863.46512   624.72093   43.00000   8.61647              6.33394
869.86364   1600.65341  176.00000  15.94759             14.36220
874.63208   1646.25943  212.00000  19.76015             13.77554
880.07727   66.81364    220.00000  19.41441             14.45848
881.03030   588.93434   198.00000  17.93383             14.61669
884.32808   401.56782   317.00000  22.59296             18.61114
880.72917   837.68750   96.00000   13.07962             9.37306
883.78947   818.26316   57.00000   10.67041             6.88570
889.19767   1719.94186  86.00000   10.74902             10.54173
894.93789   1710.22981  161.00000  16.99001             12.16544
901.28364   850.38909   275.00000  21.54634             16.61725
896.22556   1727.79699  133.00000  13.16260             12.92467
898.99655   1057.38966  290.00000  21.12591             17.54710
895.85000   1383.85000  20.00000   6.10574              4.24264
900.05882   122.50588   85.00000   12.76892             8.43271
900.50000   943.50000   40.00000   8.31983              6.03162
909.33544   612.82278   316.00000  22.69295             18.10219
905.37559   377.94366   213.00000  19.48116             13.98852
909.92834   1084.07166  307.00000  24.81809             15.86350
907.15183   1382.82723  191.00000  22.36236             10.96877
910.68201   411.92887   239.00000  18.01133             16.95829
911.43874   1716.25296  253.00000  24.27973             13.58576
914.47147   55.61562    333.00000  22.60358             18.82330
908.70909   1104.81818  55.00000   9.02815              7.76651
911.70455   630.09091   132.00000  16.18403             10.45349
915.71084   310.46386   166.00000  17.87241             11.94117
916.59031   97.45815    227.00000  19.33316             15.04267
918.57778   355.12444   225.00000  19.34665             15.01385
920.26250   291.56875   160.00000  20.13198             10.49405
923.01145   960.51908   262.00000  22.54578             15.06172
920.40714   1359.40714  140.00000  16.61836             10.83433
920.66667   622.36508   63.00000   10.55641             7.67295
923.96744   1003.47442  215.00000  21.45084             12.76993
920.42105   1408.18421  38.00000   8.05182              6.05233
931.33158   575.17895   190.00000  16.69974             14.52202
930.39706   1338.82353  68.00000   11.83446             7.52924
932.28986   635.63768   138.00000  13.74128             12.88384
932.78571   986.45238   168.00000  15.48846             13.91483
934.68000   1663.77333  225.00000  18.79772             15.47897
937.28780   1374.61463  205.00000  21.36987             12.30974
934.03571   1388.89286  28.00000   7.05994              5.03803
941.79216   413.36078   255.00000  21.79108             14.97679
945.90671   891.62682   343.00000  26.98780             16.74843
945.59901   994.20792   202.00000  19.12225             13.52468
942.26667   1399.48889  45.00000   9.66856              5.93682
948.56731   302.20673   208.00000  19.07705             14.07679
948.62617   318.80062   321.00000  21.82758             18.83555
945.89937   627.35220   159.00000  15.20643             13.34879
947.84615   1387.64615  65.00000   10.68444             7.74294
950.31818   609.40909   22.00000   7.68507              3.70583
958.11043   1377.05828  326.00000  29.94540             14.54268
964.40909   1105.77273  308.00000  24.73855             16.23149
960.25806   987.12903   31.00000   7.71673              5.18287
968.12054   16.93750    224.00000  19.61681             14.67603
967.98947   611.63158   190.00000  16.84446             14.41293
965.88406   631.92754   69.00000   11.87606             7.38932
967.30189   1678.32075  53.00000   8.92575              7.58974
971.63594   1735.39631  217.00000  17.47966             15.90824
976.07917   271.60417   240.00000  23.60499             13.04086
979.62500   1221.75291  344.00000  32.72660             13.72736
976.35081   1344.27419  248.00000  22.36489             14.23062
972.79245   1357.28302  53.00000   9.85136              6.90629
980.21236   284.51351   259.00000  21.15999             15.70411
977.81765   1673.20000  170.00000  16.15258             13.42315
980.53025   431.62633   281.00000  20.99823             17.42416
981.67339   1752.86694  248.00000  21.49029             14.79482
977.85366   625.85366   41.00000   7.23137              7.18383
984.55556   606.97037   135.00000  14.65954             11.73524
982.12500   510.33333   24.00000   6.08114              4.93207
990.29412   618.42857   119.00000  13.22807             11.62102
993.67547   598.43774   265.00000  25.08721             13.72816
1000.82109  907.63898   313.00000  29.31029             13.94865
993.93671   1110.77215  79.00000   14.54824             7.02334
998.29930   1179.18662  284.00000  24.51042             14.88201
994.93810   1349.95714  210.00000  18.43687             15.16231
999.64444   1681.81778  225.00000  29.68408             10.39654
1000.92593  1096.51389  216.00000  25.67853             10.77395
997.20000   626.30833   120.00000  14.03047             11.18563
993.84211   1366.44737  38.00000   7.78849              6.16881
1004.35316  1663.81413  269.00000  24.23694             14.25420
1003.51748  428.13636   286.00000  24.04770             15.81382
1005.13068  390.08523   176.00000  19.00350             12.06518
1007.30075  1125.41729  266.00000  24.81447             13.67209
1006.59649  368.80117   171.00000  15.11772             14.48312
1010.40249  409.75934   241.00000  19.37617             15.99377
1008.73077  618.30769   182.00000  16.30206             14.26773
1016.03767  339.78082   292.00000  22.02497             17.12404
1014.92827  1360.75105  237.00000  20.33679             14.97083
1015.09865  1425.57848  223.00000  22.74673             12.64557
1010.59615  1342.13462  52.00000   9.10057              7.26235
1010.52778  1403.41667  72.00000   11.44579             8.16383
1017.27607  579.93865   163.00000  14.99569             13.88858
1014.51724  1148.51724  58.00000   8.70988              8.56562
1019.56098  359.76098   205.00000  19.49750             13.58643
1019.22222  604.50000   18.00000   5.25874              4.26875
1027.45274  269.72139   201.00000  20.14263             12.75338
1022.92857  1141.69048  42.00000   7.53845              7.10701
1023.06061  1372.63636  33.00000   6.95475              6.06051
1028.02874  404.51149   174.00000  17.41392             12.95279
1031.72768  1421.18750  224.00000  19.38345             15.12911
1029.45902  374.42623   122.00000  13.91781             11.33182
1031.63134  1749.70968  217.00000  19.09152             14.59720
1033.78279  422.86475   244.00000  18.54103             16.91160
1038.53025  281.60142   281.00000  23.23367             15.45155
1037.43621  583.13169   243.00000  22.24514             13.97486
1034.95288  476.52880   191.00000  19.55842             12.89083
1039.54583  1115.25000  240.00000  18.51493             16.64223
1039.03974  1362.62914  151.00000  14.38499             13.38225
1046.14286  440.69585   217.00000  19.99986             14.14493
1043.26506  401.92771   166.00000  16.83501             12.72134
1043.08571  602.54286   35.00000   7.41935              5.93349
1048.33714  618.44000   175.00000  18.06852             12.41363
1050.34529  478.89686   223.00000  17.78651             16.00398
1052.20172  1755.06438  233.00000  17.68883             16.89965
1054.14179  513.60448   268.00000  23.76098             15.10145
1049.17021  1362.85106  47.00000   7.98827              7.58827
1050.17308  1431.44231  52.00000   10.17039             6.51860
1049.85714  1417.80952  42.00000   7.74655              6.87563
1054.52893  415.23140   121.00000  12.99538             11.85319
1059.17405  1690.12658  316.00000  22.53946             17.96033
1060.60547  372.35156   256.00000  18.82759             17.47115
1062.61792  464.41981   212.00000  17.74086             15.50997
1066.18012  1426.82298  322.00000  24.97384             18.08283
1060.87218  610.62406   133.00000  15.08042             11.33288
1062.41040  626.28324   173.00000  15.06259             14.66647
1058.50000  1416.00000  26.00000   6.20174              5.20355
1069.34470  573.52273   264.00000  24.50285             13.76220
1062.50000  1373.74194  62.00000   9.79137              8.06219
1074.52330  1383.50538  279.00000  25.00391             15.05735
1072.40268  485.48993   149.00000  14.51263             13.26127
1070.51931  522.18026   233.00000  27.44586             10.92784
1070.06667  1411.80000  30.00000   6.65124              5.82951
1075.69209  425.53107   354.00000  33.05660             14.13534
1077.42262  372.14286   168.00000  18.45181             11.82667
1077.92638  558.33129   163.00000  14.47289             14.39601
1079.47222  1410.56481  108.00000  13.77176             10.01665
1086.08681  399.61111   288.00000  26.58714             15.14285
1081.11885  469.40574   244.00000  23.73711             13.19655
1086.65449  262.68439   301.00000  22.08845             17.65596
1083.40351  608.71930   228.00000  18.47889             15.76355
1082.82707  623.00000   133.00000  14.44631             11.78371
1086.58852  449.08612   209.00000  21.50763             12.40045
1089.80000  1328.63582  335.00000  23.28606             19.35066
1087.87313  1770.57090  268.00000  22.97166             15.01524
1091.11947  529.55752   226.00000  23.76089             12.17814
1094.38504  1119.98892  361.00000  32.92742             14.30159
1084.55814  1360.83721  43.00000   7.94564              6.86872
1085.66071  1415.83929  56.00000   9.75362              7.35121
1085.88889  430.85714   63.00000   9.77502              8.30689
1089.82514  1348.43716  183.00000  16.66223             14.20548
1091.68487  487.12605   238.00000  20.11094             15.16606
1091.57895  1377.66917  133.00000  15.71672             10.93824
1092.83333  413.75694   144.00000  15.28647             12.06191
1093.78095  1710.74762  210.00000  19.69723             13.67180
1096.73125  1091.76562  320.00000  22.13359             18.66064
1092.49091  1368.01818  55.00000   9.56910              7.35516
1096.15132  626.55263   152.00000  15.60155             12.42543
1098.70112  1021.72346  358.00000  28.64389             16.31064
1093.90000  1361.95000  20.00000   5.21536              4.79583
1099.41216  370.80405   148.00000  14.94748             13.07142
1106.61728  1405.62963  324.00000  30.45622             13.99572
1102.17460  360.46825   126.00000  14.88477             10.84830
1105.93115  1481.71803  305.00000  24.67309             16.68814
1110.57273  537.32273   220.00000  21.42390             13.54024
1108.62397  313.21488   242.00000  19.58910             15.92056
1107.17442  474.53488   172.00000  15.23801             14.42041
1107.69652  1320.30348  201.00000  17.10842             15.02491
1106.93333  255.60606   165.00000  17.73363             11.87641
1113.58845  551.57040   277.00000  24.89447             14.23029
1111.87361  1697.99628  269.00000  24.21726             14.35934
1114.33051  1384.54237  236.00000  18.46005             16.46854
1115.16064  444.42169   249.00000  22.00977             14.73156
1110.64615  1465.07692  65.00000   9.30138              8.93059
1113.65517  1432.08046  174.00000  15.60005             14.22844
1117.82857  611.80408   245.00000  22.49487             14.11550
1117.18023  324.82558   172.00000  15.48588             14.17563
1119.39648  387.95154   227.00000  19.93624             15.00875
1121.94211  938.57368   380.00000  23.65376             20.59487
1118.66816  280.85650   223.00000  21.21294             13.52926
1120.03306  434.59504   121.00000  14.92466             10.67948
1115.81250  626.00000   48.00000   9.91195              6.12570
1126.09455  250.14182   275.00000  24.93725             14.22659
1126.16717  520.75684   329.00000  21.70991             19.40241
1127.97756  1484.68590  312.00000  23.86531             20.48362
1122.64000  1500.77000  100.00000  11.83862             10.76881
1126.76064  353.39362   188.00000  17.39786             13.76566
1122.40541  1439.54054  37.00000   7.81869              5.98162
1129.64490  1416.73878  245.00000  18.87485             16.78125
1129.33188  475.28384   229.00000  17.67608             16.73315
1127.96748  1521.89431  123.00000  13.86714             11.35508
1127.96639  301.00840   119.00000  15.61729             9.81751
1125.00000  620.12500   24.00000   6.07733              4.98158
1134.47383  1291.56198  363.00000  24.91649             18.98208
1135.25000  1668.00746  268.00000  20.59227             16.60343
1137.53659  295.46951   164.00000  15.77871             13.34608
1139.08678  402.51653   242.00000  19.88209             15.70963
1141.60996  508.68880   241.00000  21.10379             14.68137
1143.54851  1430.04851  268.00000  23.99523             14.41925
1141.25943  1788.43396  212.00000  18.78126             14.39879
1142.67442  309.20349   172.00000  17.29024             12.71479
1143.36759  1385.33202  253.00000  21.35111             15.68157
1145.83729  1735.05085  295.00000  22.25655             17.14123
1145.06000  1272.56000  150.00000  15.40985             12.38149
1144.39623  1499.76415  106.00000  12.82215             10.59201
1148.67742  420.66820   217.00000  19.88006             13.98196
1147.52439  1307.86585  164.00000  16.73264             12.51007
1145.27869  601.34426   61.00000   11.60396             6.72987
1150.58537  380.53659   164.00000  15.49872             13.58776
1150.75969  1413.34109  129.00000  15.12695             10.89851
1154.34177  493.27004   237.00000  18.18697             16.85593
1155.69802  522.08911   202.00000  19.36928             13.48697
1154.58228  300.99367   158.00000  15.06526             13.44157
1151.90909  1444.40909  44.00000   8.15754              6.90909
1158.36000  1801.83200  250.00000  19.14921             16.71786
1158.95625  1535.20625  160.00000  15.71232             13.09244
1162.03529  1405.71373  255.00000  19.65193             16.78421
1162.50000  407.18557   194.00000  18.18139             13.70603
1163.81570  1379.82935  293.00000  22.21127             17.66617
1158.22368  1511.15789  76.00000   10.39654             9.33453
1166.21973  395.17937   223.00000  22.19956             14.01185
1163.68586  359.96859   191.00000  21.27370             11.56418
1167.91603  1525.43893  262.00000  24.01481             14.04688
1166.51370  615.98630   292.00000  25.82350             15.00470
1167.03766  1749.58996  239.00000  21.27129             14.43784
1172.41525  1131.93785  354.00000  24.22390             18.83103
1168.27551  1286.41837  196.00000  16.77212             15.08301
1164.50820  1447.47541  61.00000   9.74869              7.96930
1170.63810  1646.73810  210.00000  20.08549             13.46633
1171.43043  1229.78696  230.00000  19.91604             14.96460
1176.05935  423.67953   337.00000  26.81237             16.36426
1171.65543  1550.75655  267.00000  23.97219             14.67498
1180.17431  360.43578   218.00000  25.74807             10.97154
1174.97561  1447.87805  41.00000   7.56009              6.86898
1180.88265  1196.65816  196.00000  16.75469             14.99274
1186.08612  508.97608   209.00000  21.65237             12.70136
1183.18644  529.03955   177.00000  16.22178             13.99440
1188.40278  606.68056   288.00000  23.20690             15.95794
1185.90612  1409.33878  245.00000  21.49919             15.32889
1195.36592  941.60894   358.00000  25.98510             17.65484
1191.22917  555.00521   192.00000  16.74004             14.89453
1192.20792  482.47525   202.00000  17.60461             14.67503
1194.09818  1156.02909  275.00000  23.05847             15.45931
1190.73504  1444.11966  117.00000  13.14873             11.55801
1193.63910  374.31579   133.00000  15.34369             11.16607
1191.64634  1534.42683  82.00000   12.17774             8.57428
1196.29050  1139.89385  179.00000  16.78017             13.60830
1202.14173  1743.67717  254.00000  28.68448             11.32619
1197.33981  420.54854   206.00000  18.77821             14.01035
1194.25926  1575.97531  81.00000   11.55288             8.93123
1195.10000  1427.95000  20.00000   5.21536              4.79583
1196.90000  1545.83333  60.00000   9.39352              8.17867
1201.45098  495.51961   204.00000  17.63746             14.74798
1202.69880  434.26506   166.00000  16.53482             12.84101
1204.69758  380.79839   248.00000  21.00884             15.07611
1203.41520  521.61988   171.00000  15.74759             13.93538
1205.59150  569.66993   306.00000  29.80923             13.84001
1200.42857  1416.78571  28.00000   6.62129              5.59841
1201.50943  1432.15094  53.00000   9.09384              7.45504
1203.80488  1544.95122  41.00000   7.88072              6.64634
1212.12903  1567.62581  310.00000  25.93370             15.34236
1210.05579  1414.85408  233.00000  18.32998             16.70237
1211.64497  1391.27219  169.00000  17.21924             12.76969
1216.01724  1338.86897  290.00000  22.08416             16.93182
1211.53333  1432.06667  45.00000   8.40361              6.78244
1218.72813  416.43125   320.00000  27.17919             15.97447
1217.77083  604.87500   192.00000  16.08458             15.31979
1224.80000  594.59000   200.00000  24.57972             10.62205
1222.37500  1423.48864  176.00000  16.93026             13.39693
1223.76211  536.55947   227.00000  21.49802             13.89232
1221.80928  1451.93814  194.00000  17.81252             14.07524
1225.77344  503.32422   256.00000  23.28781             15.10339
1223.40244  1466.51829  164.00000  15.45068             13.53394
1230.98454  469.49485   388.00000  25.22683             20.16260
1231.23377  1480.79221  77.00000   10.67551             9.20760
1240.62000  1762.52333  300.00000  27.35891             14.06832
1236.62500  440.07738   168.00000  16.88153             12.72049
1235.01471  522.98529   68.00000   9.48038              9.15219
1241.47407  1395.91481  270.00000  21.81436             15.79144
1236.09589  1261.71233  73.00000   11.46570             8.15590
1240.99567  1278.16450  231.00000  17.57128             16.76767
1242.46154  1320.86391  169.00000  18.89117             11.66135
1244.19079  507.11842   152.00000  16.45234             11.86715
1250.36000  598.23273   275.00000  19.89413             17.88214
1243.30769  1249.05128  39.00000   7.75398              6.45783
1248.41509  1703.57233  159.00000  16.08085             12.62422
1251.54366  1219.59718  355.00000  29.08593             15.88557
1251.52140  434.64202   257.00000  19.89967             17.03006
1249.03571  1370.85714  56.00000   9.59273              7.49693
1249.70732  1503.75610  82.00000   11.07461             9.42784
1253.13656  1740.86344  227.00000  19.03563             15.33098
1251.55357  1239.48214  56.00000   9.24130              7.79955
1251.76119  1305.70149  134.00000  15.77302             10.89881
1256.45810  1347.60615  358.00000  28.50266             16.22309
1254.31356  1522.22034  118.00000  12.88033             12.04587
1255.33708  1777.10112  178.00000  17.18654             13.56096
1256.60630  480.98425   254.00000  24.02676             14.07777
1256.35821  513.93532   201.00000  19.16933             13.51355
1258.59202  1255.29448  326.00000  31.12941             13.87105
1252.14286  1386.22857  35.00000   6.97262              6.41807
1255.89583  1324.03125  96.00000   13.03628             9.45337
1255.65854  1495.30894  123.00000  13.85941             11.29805
1262.84672  529.89051   274.00000  21.35236             16.65203
1257.13889  1189.50000  36.00000   7.61868              5.98910
1265.08421  1517.20000  285.00000  28.63495             15.56971
1258.26316  1269.73684  19.00000   5.54708              4.38456
1260.89062  590.71875   64.00000   9.46258              8.73227
1266.20472  1383.50394  254.00000  24.89426             13.41460
1268.88128  1671.08676  219.00000  27.61828             10.81807
1266.22500  474.63333   120.00000  14.41335             10.76232
1267.82659  452.87283   173.00000  16.04034             13.86984
1269.41317  1601.53293  167.00000  18.16990             12.24958
1265.72619  1705.10714  84.00000   11.52094             9.31864
1272.91803  1851.56831  183.00000  23.00867             10.30112
1276.24242  520.16667   132.00000  15.38045             11.03696
1275.63462  1508.08654  104.00000  14.10857             9.36853
1278.52542  1616.85593  118.00000  14.76300             10.24858
1286.85047  1157.87383  214.00000  24.09276             11.46842
1282.63285  367.68599   207.00000  19.46757             13.74312
1283.49730  427.48649   185.00000  20.51636             11.92251
1288.72112  590.43426   251.00000  19.02659             17.11474
1295.23077  1312.85360  403.00000  28.77124             18.49749
1291.69962  1764.98099  263.00000  22.54559             15.27428
1288.38889  1386.97222  108.00000  12.47849             11.16558
1297.36177  432.41297   293.00000  20.48007             19.06456
1299.29412  544.57754   187.00000  24.96626             9.92578
1291.14286  1282.19048  42.00000   7.74655              6.87563
1300.00714  1532.22143  280.00000  24.76693             14.70809
1301.02105  522.62632   190.00000  24.40053             9.99442
1297.27419  651.22043   186.00000  22.64127             10.73509
1297.81481  1931.55556  108.00000  14.07178             9.96559
1298.66524  363.87124   233.00000  20.49180             14.62089
1300.65789  715.42105   228.00000  21.08846             13.81479
1302.87925  339.50189   265.00000  22.52837             15.19575
1304.89412  533.77059   170.00000  16.13133             13.82687
1307.09677  551.98387   186.00000  20.35077             11.81459
1301.46429  1512.35714  28.00000   6.36715              5.57785
1312.14650  602.36943   314.00000  21.91987             18.27876
1313.55022  451.66812   229.00000  20.82484             14.39187
1313.85161  316.57419   155.00000  14.60378             13.56819
1313.89441  437.47205   161.00000  21.69891             9.80543
1312.48246  1971.95614  114.00000  12.54212             11.81405
1314.97987  1379.87919  149.00000  14.24154             13.39935
1315.72050  1613.26087  161.00000  16.92977             12.21498
1321.20085  626.20513   234.00000  20.41529             15.01281
1319.97297  712.99099   222.00000  18.56331             15.30128
1322.57059  304.91765   170.00000  17.77900             12.23309
1323.46667  1351.47619  210.00000  23.39441             11.79300
1329.79916  508.66109   239.00000  29.27575             10.88989
1324.20144  549.87050   139.00000  15.22913             11.66027
1326.72691  592.22892   249.00000  21.93347             14.67750
1328.93162  1374.39744  234.00000  20.85850             14.84724
1332.80193  519.92754   207.00000  20.32923             12.99874
1332.06015  1543.49624  266.00000  19.50961             17.85429
1337.47619  1631.39524  210.00000  18.25562             14.71621
1338.60731  608.07763   219.00000  21.26404             13.31041
1338.90511  1283.11314  274.00000  25.28334             14.30822
1349.26990  1174.51211  289.00000  31.55306             12.13581
1344.48000  360.57067   375.00000  22.37680             21.88535
1344.61017  331.70339   236.00000  24.82569             12.15919
1350.63019  1376.66792  265.00000  21.83301             15.89307
1353.63500  782.52000   200.00000  18.73402             13.66816
1353.94419  1767.91163  215.00000  17.48013             15.92718
1356.07229  1542.62048  166.00000  16.45644             12.90754
1358.06639  481.04979   241.00000  22.02671             13.99556
1359.51364  1275.52727  220.00000  22.62854             12.46697
1356.46296  584.64198   162.00000  16.87686             12.33133
1358.36719  508.06250   256.00000  22.12210             16.27937
1357.57282  557.06796   103.00000  14.16351             9.42900
1360.20915  520.92157   153.00000  18.35635             10.89091
1358.90551  663.48031   254.00000  30.59032             10.64775
1360.88083  770.08808   193.00000  16.96398             14.54656
1359.42623  644.52459   61.00000   9.47786              8.37882
1361.93706  1354.16084  143.00000  15.34305             11.95687
1358.53125  1418.65625  32.00000   6.77200              5.97777
1368.44583  1158.25833  240.00000  21.33650             14.58900
1364.34752  1340.72340  141.00000  14.12283             12.82061
1371.16116  599.92562   242.00000  20.33780             15.22781
1371.05682  677.81250   176.00000  17.89934             12.59868
1373.79283  552.43825   251.00000  26.38593             12.76227
1369.96748  1547.54472  123.00000  13.87158             11.28574
1370.42553  1347.42553  47.00000   9.52304              6.35360
1375.60465  307.18314   344.00000  27.06069             16.25331
1376.49045  654.04140   314.00000  23.88299             17.67777
1378.54826  1249.14672  259.00000  22.30771             15.07176
1377.02113  699.83803   284.00000  22.90754             15.88696
1379.53333  1172.55185  270.00000  22.29811             15.47592
1382.98438  495.24687   320.00000  24.45050             17.04388
1378.67488  796.55172   203.00000  18.38698             14.10263
1375.39706  1414.33824  68.00000   9.96909              8.69244
1385.49296  1544.33803  284.00000  20.18236             18.13016
1385.26908  420.79116   249.00000  19.35898             16.47440
1380.33333  1441.51515  33.00000   8.27603              5.13147
1388.36824  264.00676   296.00000  22.92420             16.58842
1387.75122  453.39024   205.00000  17.87006             14.68647
1392.30415  730.67742   217.00000  18.44695             15.48518
1390.07874  559.41732   127.00000  14.51258             11.16991
1393.37594  1098.56391  266.00000  20.86111             16.33273
1389.62500  751.04167   48.00000   9.66686              6.45037
1390.67273  1424.65455  55.00000   10.00752             7.03814
1398.95652  545.60870   207.00000  20.86217             13.04951
1396.76923  1316.90210  143.00000  14.83012             12.33730
1399.24390  813.84878   205.00000  17.54720             14.92772
1404.74581  1450.12849  358.00000  28.36533             16.51572
1397.32203  1327.72881  59.00000   10.32812             7.31280
1406.74641  1757.89474  209.00000  21.31924             12.59516
1405.77033  697.21053   209.00000  21.33386             12.66281
1413.37358  486.99245   265.00000  26.17814             13.18615
1410.19932  680.46284   296.00000  23.53398             16.10546
1409.31193  536.25688   109.00000  12.65173             11.03623
1414.11417  1186.14567  254.00000  26.93755             12.50863
1413.23567  1316.58599  157.00000  15.54886             13.01457
1409.30435  1548.60870  46.00000   8.23312              7.12170
1420.22490  402.32129   249.00000  20.57605             15.73464
1419.02597  501.94805   154.00000  15.33089             12.82554
1421.18539  531.37079   178.00000  16.07043             14.15573
1422.30846  828.87065   201.00000  17.29617             14.97022
1425.41117  1179.83249  197.00000  16.65244             15.11477
1425.22776  250.00000   281.00000  21.97901             16.41697
1429.04142  377.46450   338.00000  20.85031             20.68383
1429.75661  1547.17989  189.00000  20.53321             11.93417
1434.83582  722.12687   268.00000  23.39347             14.70902
1434.60479  772.73054   167.00000  17.70924             12.08913
1438.00629  1309.67610  318.00000  20.70013             19.58729
1438.51152  571.51152   217.00000  22.44878             12.40083
1436.48485  559.25758   66.00000   11.32581             7.46671
1443.57872  1560.93617  235.00000  22.54271             13.42601
1449.89577  223.38111   307.00000  22.90173             17.16817
1450.14957  489.55983   234.00000  22.48792             13.36782
1453.35600  366.24000   250.00000  19.91534             16.24161
1452.02857  741.15238   210.00000  21.86783             12.38909
1452.43077  577.80000   195.00000  18.79942             13.48346
1456.44444  1168.71059  387.00000  27.66562             18.19601
1454.63636  565.61932   176.00000  18.91250             11.99891
1463.52632  469.50718   209.00000  20.89181             12.83830
1458.24742  1932.13402  97.00000   14.09702             8.77244
1473.39276  775.04178   359.00000  29.34422             15.93502
1471.99644  740.60854   281.00000  22.93057             15.78752
1475.27333  797.84667   150.00000  15.14213             12.62263
1480.54545  568.09394   330.00000  25.33657             16.86432
1477.83273  1561.61091  275.00000  24.32674             14.58922
1478.93706  1841.40559  143.00000  14.98562             12.19802
1479.00000  1161.20000  50.00000   9.60274              6.73702
1486.39051  211.38321   274.00000  20.20849             17.31868
1485.79070  1334.25581  43.00000   8.63408              6.36725
1490.51707  728.89268   205.00000  18.49480             14.42008
1493.31443  459.67526   194.00000  21.19339             11.80704
1495.11982  1329.76037  217.00000  22.49432             12.54338
1503.12254  821.35667   457.00000  27.50301             21.91440
1505.30078  793.07812   256.00000  19.59346             16.77762
1509.91204  174.28704   216.00000  19.56405             14.14836
1509.77586  1138.51724  174.00000  15.53389             14.35046
1515.62814  439.70854   199.00000  16.66120             15.37729
1513.81955  1720.81955  133.00000  16.63729             10.30333
1527.80172  740.83621   348.00000  30.04104             15.32543
1519.19231  1695.69872  156.00000  16.21516             12.27668
1527.50526  277.92281   285.00000  24.67502             14.79361
1519.38889  572.13889   36.00000   7.34501              6.16353
1527.61468  1343.71865  327.00000  30.06021             14.66262
1527.88800  165.84400   250.00000  20.99635             15.34155
1528.74820  1126.86331  278.00000  21.73812             16.34290
1536.28685  426.45817   251.00000  26.78087             12.10931
1534.76250  1695.01250  160.00000  14.77506             13.89937
1542.05603  1148.56466  232.00000  21.05962             14.71673
1537.93103  1329.77586  58.00000   10.09027             7.51525
1542.13441  1658.31183  186.00000  17.05190             14.11286
1543.76444  1131.12444  225.00000  19.76367             14.64042
1552.78599  1360.49416  257.00000  22.42428             15.21103
1555.72351  866.35659   387.00000  25.63831             19.51262
1554.68441  579.85551   263.00000  25.16557             13.43136
1554.65891  1148.34109  129.00000  13.90783             11.92469
1557.63934  405.53552   183.00000  18.16490             12.89472
1555.51042  1897.65625  96.00000   12.22798             9.98753
1557.69091  1999.57273  110.00000  12.52956             11.24345
1563.60194  750.73139   309.00000  22.57548             17.47281
1563.14362  1094.93085  188.00000  18.53847             13.08253
1563.15094  1115.95094  265.00000  19.36303             17.52815
1569.57848  263.73991   223.00000  18.41679             15.65547
1574.72372  584.06306   333.00000  26.46546             17.73309
1573.30851  1619.89362  188.00000  21.58159             11.41570
1572.82456  1103.57018  114.00000  13.79936             10.54095
1578.25306  909.79184   245.00000  24.45979             13.39513
1580.96552  767.40345   290.00000  25.02927             15.28900
1584.79835  1135.00823  243.00000  18.29340             17.06850
1591.23333  794.04815   270.00000  22.26961             15.59822
1595.13962  1373.16981  265.00000  23.87346             14.53589
1592.13776  911.69388   196.00000  21.84075             11.70187
1595.46330  1564.76606  218.00000  18.76578             14.83652
1605.17647  845.17647   238.00000  20.78659             14.65331
1605.55024  1812.89952  209.00000  18.30234             14.66433
1630.54090  896.92348   379.00000  27.44279             17.95883
1630.88995  608.34928   209.00000  18.39460             14.54149
1641.31278  972.36564   227.00000  20.73033             14.25363
1645.11321  1375.94654  318.00000  22.64416             18.13569
1645.48077  1769.45513  156.00000  16.37967             12.34448
1655.48375  608.85921   277.00000  20.58987             17.52181
1655.76695  756.95339   236.00000  18.84437             16.08197
1656.13781  980.54770   283.00000  22.51309             16.30281
1669.81667  601.60417   240.00000  20.50631             15.11224
1668.76856  768.60262   229.00000  20.27794             14.51238
1682.48438  1714.00000  128.00000  14.86799             11.24451
1693.11741  744.70445   247.00000  20.93053             15.14315
1690.88350  1033.43689  103.00000  14.74427             9.02614
1697.94444  1020.74359  234.00000  20.02156             15.07650
1706.81095  609.37313   201.00000  17.16163             15.06709
1714.65789  1044.78947  152.00000  16.49108             11.80497
1735.08014  760.83275   287.00000  21.70501             16.91238
1760.30159  750.30159   252.00000  20.23606             15.94946
1773.72202  775.25632   277.00000  29.50679             12.11558
1768.90780  261.79433   141.00000  18.26393             9.98859
1799.65818  767.26182   275.00000  19.36690             18.27847
1821.27746  298.47977   173.00000  16.25130             13.98340
1840.97154  781.30894   246.00000  21.03921             15.00916
1884.26587  795.42857   252.00000  21.50796             14.96041
1895.60159  385.70916   251.00000  18.95902             17.04392
1919.07171  822.19920   251.00000  19.71886             16.27439
1925.45588  163.01471   68.00000   12.10676             7.37108
1931.12102  354.33758   157.00000  16.16170             12.59574
1956.58935  829.45627   263.00000  19.80531             17.10853
1976.50365  403.97080   137.00000  13.83917             12.65935
1990.55814  1575.89535  86.00000   13.27529             8.62676