# Filename: Nuclei_416_ctrl_007.npz
# Voxel size (nm): (108, 108)
# Area quantity: voxels
# Num nuclei detected: 809
Y           X           AREA        MAJOR_AXIS_LENGTH    MINOR_AXIS_LENGTH
6.26613     61.71774    124.00000   14.31991             11.11886
6.39286     913.66429   140.00000   17.06170             10.90989
3.95652     1156.21739  92.00000    12.00634             10.22021
9.80488     1445.15610  205.00000   21.89513             12.04522
10.03008    534.56767   266.00000   23.05329             14.75537
11.23770    710.07377   244.00000   20.35912             15.62229
20.79635    1616.86626  329.00000   29.67475             14.33651
16.56186    35.09278    194.00000   18.46182             13.56593
20.01250    872.58125   160.00000   21.98521             9.45212
16.85484    1743.09677  124.00000   15.97584             9.94315
18.98718    845.44017   234.00000   20.10868             15.06424
19.62295    15.83607    122.00000   15.06376             10.62713
22.35385    881.30769   130.00000   16.76158             9.91466
29.06250    164.77404   208.00000   25.89375             10.45226
33.36638    1433.00862  232.00000   24.74709             12.06240
39.15854    922.03252   246.00000   32.84866             9.77270
37.91795    1558.44615  195.00000   20.08392             12.42288
48.13472    1727.91710  193.00000   22.85802             11.02667
48.57627    903.10593   236.00000   22.34950             13.52049
52.01935    1003.40645  155.00000   16.88941             11.95672
55.00474    1793.54502  211.00000   20.61974             13.09779
58.79126    1030.37864  206.00000   18.82705             13.97598
61.97490    1443.43096  239.00000   20.57604             14.89561
64.62626    1642.94444  198.00000   19.18564             13.22267
75.64234    1612.67518  274.00000   21.77362             16.09867
84.75321    955.54808   312.00000   29.40293             13.98698
87.26667    2014.55556  225.00000   25.17640             11.92576
90.83590    45.22564    195.00000   21.24412             12.14088
98.41231    1033.53538  325.00000   28.45199             14.73174
94.90777    1701.11165  206.00000   19.15640             13.72962
102.08727   931.05455   275.00000   24.60895             14.73417
107.46460   1052.26549  226.00000   22.60512             12.75093
114.22407   993.87967   241.00000   23.60348             13.21818
116.32039   1005.27184  206.00000   21.44165             12.27017
125.77447   18.86383    235.00000   20.49738             14.76014
127.62500   1437.55469  256.00000   21.10704             15.56663
131.59410   954.55720   271.00000   24.72600             14.31547
139.67785   573.35235   298.00000   40.08659             9.89588
137.60086   1198.02146  233.00000   26.73117             11.97152
146.46814   1020.15512  361.00000   32.13659             14.41382
145.73607   1058.57185  341.00000   31.98952             14.28003
148.16895   1046.83562  219.00000   25.23854             11.47438
162.22152   1314.77215  158.00000   29.73194             8.09850
154.96333   916.81000   300.00000   22.38080             17.24937
155.88353   959.99197   249.00000   21.25134             15.02079
168.59459   1044.32095  296.00000   30.55219             12.62193
171.68966   269.15517   290.00000   26.80405             13.86845
195.80851   975.67730   282.00000   28.80528             12.83844
196.56159   923.39855   276.00000   30.62720             11.71442
207.65979   936.35052   291.00000   30.41931             12.46531
209.30830   1464.67984  253.00000   21.80806             15.01036
216.59211   1091.93092  304.00000   26.86738             14.54884
216.91418   1156.07090  268.00000   23.75628             15.91326
230.94615   1406.66923  260.00000   22.07770             15.16301
235.14876   1145.97245  363.00000   22.58345             21.32864
241.61860   735.10233   215.00000   18.95382             14.44821
255.56716   755.18657   268.00000   26.14836             13.13961
256.45570   1016.79430  316.00000   28.33819             14.42873
269.17259   1788.94416  197.00000   19.03217             13.21633
277.52062   1853.79381  194.00000   25.54520             10.03051
292.39271   282.11741   247.00000   29.99265             12.07683
292.79783   813.82310   277.00000   25.17949             14.12225
290.33696   1020.97826  92.00000    12.56946             9.51028
300.52918   952.61868   257.00000   20.03654             16.57369
299.77976   1025.82738  168.00000   16.46675             13.20075
308.12857   1004.93571  280.00000   22.33376             16.13739
305.16854   868.48876   178.00000   16.55443             13.91023
305.31694   1076.36612  183.00000   19.19407             12.35671
311.84977   884.64789   213.00000   21.77832             12.79005
314.60773   1234.52486  181.00000   22.42151             11.27936
320.56125   828.62108   351.00000   29.15223             15.72904
315.28022   896.66484   182.00000   15.47301             15.28608
316.00000   1082.73057  193.00000   18.30482             13.96443
316.23684   848.30702   114.00000   13.54480             10.94609
318.62451   1143.45850  253.00000   19.06778             16.96875
326.22535   889.42254   142.00000   14.56867             12.67471
332.50883   1102.43816  283.00000   29.60592             12.61132
330.37395   1512.24790  238.00000   20.01798             15.16605
333.96751   1028.74729  277.00000   22.05572             16.78794
339.30000   1046.13333  270.00000   26.36470             13.08237
337.08333   968.63889   144.00000   16.24801             11.36390
341.12810   982.55372   242.00000   22.73587             13.76646
341.67712   871.42947   319.00000   24.47315             17.41492
345.40000   1060.68889  270.00000   25.92135             13.50573
343.73822   1191.91099  191.00000   17.87986             13.98909
347.04682   1134.29588  534.00000   44.38141             15.95689
347.55738   953.25410   122.00000   14.69842             10.60707
351.79339   1025.17769  242.00000   18.91680             16.44549
360.42712   1088.15254  295.00000   23.92191             15.74253
364.42029   1030.01449  276.00000   33.04730             11.23672
362.06159   1000.45290  276.00000   21.69295             16.34903
364.25896   910.48207   251.00000   21.88392             14.76941
367.49468   875.86702   188.00000   24.00511             10.07119
364.62500   944.82065   184.00000   17.42124             13.46157
377.18337   634.70789   469.00000   42.76090             14.90664
374.54704   730.40070   287.00000   26.71436             13.88215
376.29630   766.01235   243.00000   19.40864             16.25835
375.87648   683.21378   421.00000   40.41677             13.63866
379.64205   965.76705   176.00000   15.32890             14.79917
382.66316   945.70526   190.00000   20.22177             12.03508
393.51575   836.11220   1016.00000  41.31039             33.35024
392.87455   877.23656   279.00000   40.83979             9.65405
383.38636   1227.75000  264.00000   21.09562             16.24280
388.68858   859.97924   289.00000   22.43535             17.71779
392.00402   1180.29317  249.00000   26.13201             12.43197
392.59524   916.00794   252.00000   24.42891             13.45078
393.63043   1268.29710  276.00000   25.38206             14.24149
394.05116   934.92093   215.00000   22.92395             12.66846
395.45213   968.96809   188.00000   21.64183             11.34017
399.51613   1088.40092  217.00000   21.07293             13.35136
399.67857   960.82143   84.00000    11.87254             9.38710
403.81154   1058.89231  260.00000   22.26316             14.97170
405.29500   779.14500   200.00000   18.21498             14.16212
405.32171   948.93411   258.00000   20.73354             16.25832
410.95436   906.60581   241.00000   25.03707             12.40011
410.20103   967.89691   194.00000   17.68231             14.03985
419.16981   1238.89057  265.00000   31.58742             11.30224
422.67812   689.37659   786.00000   37.13138             27.90224
422.37519   717.75194   645.00000   32.18177             26.42772
414.68707   805.44898   147.00000   15.25200             12.28569
411.39535   1020.09302  43.00000    7.71984              7.10697
425.14162   742.13990   579.00000   28.38345             26.97132
420.54028   1140.88626  211.00000   19.77778             13.63366
419.80220   760.98352   182.00000   17.06648             13.66698
422.95597   774.38365   159.00000   16.80569             12.11114
426.94286   903.16571   175.00000   20.00246             11.31995
427.50365   985.57664   137.00000   15.23277             11.83277
434.38579   952.19289   197.00000   20.49520             12.36811
435.92899   1111.11243  169.00000   17.62458             12.34237
436.41951   1086.85854  205.00000   16.98383             15.48198
437.80385   1024.32308  260.00000   22.07764             15.13274
439.37000   1169.95000  200.00000   17.47633             14.83333
442.67829   1192.27519  258.00000   21.89269             15.21976
443.24500   1133.03500  200.00000   16.82852             15.50681
450.32800   846.63600   250.00000   20.46344             15.81487
450.11682   895.97664   214.00000   20.80440             13.68798
452.52193   907.47807   228.00000   23.78132             12.27944
455.22258   972.29677   310.00000   31.18391             13.28475
471.41787   546.11816   347.00000   37.98275             12.93789
457.72093   1054.60465  86.00000    13.02827             8.40300
468.01075   1074.31900  279.00000   19.92724             17.99281
472.61649   938.79570   279.00000   24.51168             15.34592
476.27465   1531.65141  284.00000   31.63836             12.14366
472.07965   965.44248   226.00000   19.64188             14.85469
475.63855   1063.72289  166.00000   22.89386             9.41534
478.46009   1323.86854  213.00000   18.97555             14.50731
483.74566   1046.02890  173.00000   16.52231             13.36027
490.22346   1127.34637  179.00000   19.92659             11.66909
491.10945   1012.10448  201.00000   17.34017             14.92692
497.39189   1324.68018  222.00000   21.76803             13.28434
497.00000   1107.04977  221.00000   20.15725             14.61476
496.40097   840.09662   207.00000   17.72074             15.04157
498.88021   941.40625   192.00000   19.41124             12.78346
494.67123   958.80822   73.00000    10.17446             9.11559
501.84483   1003.31034  116.00000   14.52406             10.20250
512.14201   891.99408   169.00000   19.20651             11.45998
515.51812   796.83696   276.00000   21.06896             16.82868
516.69796   821.80000   245.00000   23.14700             13.66817
517.71038   538.59016   183.00000   18.90514             12.41928
520.07368   972.76842   190.00000   19.03400             12.73717
520.80822   1013.81507  146.00000   17.36866             10.78759
527.18018   1518.08559  222.00000   21.12446             13.44069
526.54839   895.83333   186.00000   17.93888             13.26952
535.49271   1045.28863  343.00000   24.91454             17.69870
534.22549   944.76961   204.00000   20.24362             13.65341
538.51439   784.03237   278.00000   23.00000             15.45990
541.12994   1007.83051  177.00000   17.71121             12.77980
548.18269   722.93590   312.00000   24.34777             18.47443
549.48077   959.49038   208.00000   25.77856             10.40326
551.06202   647.26163   516.00000   35.20542             20.44342
548.58685   892.20657   213.00000   20.47849             13.30244
562.60833   1330.23750  240.00000   24.96291             12.40281
558.56410   1233.74359  234.00000   21.28852             14.10604
560.14679   1901.79358  218.00000   19.91240             13.95840
563.00833   1883.02917  240.00000   23.42919             13.23348
561.80620   1011.50388  129.00000   15.20351             11.18572
570.41946   184.54027   298.00000   21.77556             17.94110
571.27586   1009.01724  116.00000   13.92375             10.97693
578.26641   751.17375   259.00000   22.99498             14.53176
578.93370   924.57459   181.00000   21.59718             10.83830
584.71377   1283.82609  276.00000   24.01741             14.77879
583.57377   942.96721   61.00000    11.37062             6.90792
588.57921   1331.64356  202.00000   21.57332             11.95964
587.64251   1679.91304  207.00000   17.42854             15.18750
589.92857   933.58333   168.00000   17.30554             12.89303
593.76984   1514.46825  252.00000   25.44422             12.83031
596.82759   1247.55172  435.00000   25.04754             22.37633
597.72763   1860.28405  257.00000   25.61816             12.90621
604.38081   1037.72674  344.00000   26.89633             16.66643
607.51143   1211.74000  350.00000   24.45883             18.63750
600.64583   930.87500   48.00000    8.30654              7.33106
610.05181   890.90674   193.00000   23.33427             10.56307
611.68056   1785.50000  216.00000   19.45438             14.44677
612.37611   1801.23894  226.00000   19.19628             15.09171
613.03478   919.86957   115.00000   16.30841             9.10069
616.74380   1075.14876  242.00000   22.45409             14.09518
618.42857   911.95714   140.00000   17.15385             10.53593
618.27160   1000.28395  162.00000   16.96064             12.17322
618.23602   946.27329   161.00000   16.58764             12.58733
625.22053   1510.14829  263.00000   27.88285             12.43333
626.80087   726.38528   231.00000   21.50206             14.01678
630.70000   1088.79583  240.00000   23.28866             13.25135
627.04188   797.34031   191.00000   17.05697             14.27756
627.97312   1394.22581  186.00000   17.20901             13.82732
628.84541   1415.67633  207.00000   17.91819             14.85943
631.38122   1133.34254  181.00000   16.97902             14.06602
640.66525   1326.20339  236.00000   30.13726             11.43899
639.15385   755.58974   234.00000   23.55283             12.75158
635.43662   932.83099   71.00000    11.68607             7.79212
638.09237   1019.53815  249.00000   21.59573             14.85631
646.89003   526.15808   291.00000   35.05987             11.34581
637.82540   994.53968   126.00000   15.19749             10.56272
641.47036   1063.50988  253.00000   21.04127             16.26171
642.97112   1263.19134  277.00000   21.82759             16.30431
642.98684   1334.26316  76.00000    14.94261             6.82312
643.14078   829.86408   206.00000   19.56391             13.55965
645.28704   804.34722   216.00000   18.05881             15.28624
648.12651   882.47590   166.00000   24.40752             8.69885
650.05848   872.87719   171.00000   20.33358             10.88824
652.54587   1236.83028  218.00000   24.71130             11.30942
652.82781   945.48344   151.00000   20.16391             9.66788
654.75877   1305.21491  228.00000   25.32049             11.57777
650.84252   912.51181   127.00000   15.39408             10.75173
650.15556   1134.13333  135.00000   14.89468             11.66170
653.75481   1447.03846  208.00000   19.53941             13.62389
650.56087   1732.57391  230.00000   21.78239             13.54759
659.29225   820.49296   284.00000   23.96783             16.47382
650.75248   1018.87129  101.00000   12.06837             10.70024
653.73596   1276.56180  178.00000   17.30914             13.19615
656.84831   1126.64607  178.00000   20.13021             11.68683
653.87342   1255.83544  158.00000   17.22102             11.83269
657.58500   689.60000   200.00000   17.83030             14.54527
661.42767   987.81761   159.00000   16.26249             12.46670
660.98551   921.23188   69.00000    12.85602             7.01993
663.08434   1021.52410  166.00000   17.20927             12.60168
662.31111   1209.06111  180.00000   15.71489             14.87916
663.90909   913.33333   132.00000   14.88991             11.34120
664.14189   1333.65541  148.00000   15.64134             12.18959
667.44604   949.10072   139.00000   13.97663             12.81126
669.23478   1092.45217  115.00000   15.31651             9.64765
670.53917   1185.26267  217.00000   21.35813             13.08220
672.16204   1364.09722  216.00000   19.29670             14.30719
678.75758   1260.99495  198.00000   19.28176             13.22533
678.89706   1465.88235  204.00000   18.32418             14.43002
681.66939   1936.14694  245.00000   22.54337             13.97155
678.29565   1025.57391  115.00000   12.34047             11.93318
683.05859   800.81250   256.00000   19.10836             17.15927
681.77698   922.48921   278.00000   23.63766             15.34177
685.10778   1012.05389  167.00000   17.24199             12.34106
687.56322   1228.54598  174.00000   17.11794             13.02625
691.66667   1906.28235  255.00000   22.20546             15.29800
690.72832   1143.97688  173.00000   17.40483             12.69556
699.10236   740.49213   254.00000   31.18846             10.89649
693.28436   1216.86730  211.00000   17.91781             15.11637
697.99209   1952.52174  253.00000   22.63555             14.60153
697.74269   1348.25731  171.00000   23.74269             9.29137
699.91617   1126.09581  167.00000   17.57786             12.23445
709.76154   1271.51154  260.00000   28.06040             12.04903
708.36760   1286.96262  321.00000   24.90683             16.64495
709.42408   1041.92670  191.00000   19.54933             12.69998
707.75591   1235.59843  127.00000   15.13945             10.67578
709.25000   116.57273   220.00000   17.40353             16.13229
711.89820   1026.20958  167.00000   16.23957             13.13338
712.93443   702.57923   183.00000   16.00471             14.90836
717.73118   1099.69892  186.00000   20.39498             11.79837
716.69444   893.06019   216.00000   20.69500             13.72813
718.19608   1049.84967  153.00000   16.57439             11.99015
714.22000   1115.92000  50.00000    9.19583              6.88186
719.29496   668.36691   139.00000   18.43995             9.68671
718.98089   810.50318   314.00000   36.10272             11.16188
722.48667   659.10000   150.00000   18.79484             10.57944
726.91007   1524.39928  278.00000   29.59396             12.40647
721.50625   1189.51250  160.00000   17.09146             12.16054
724.15000   872.69286   140.00000   22.43339             8.11449
721.36290   1325.09677  124.00000   14.36197             11.00700
723.01235   1077.91975  162.00000   15.96877             12.98828
721.40299   1198.35821  67.00000    11.12801             7.77249
723.99713   1245.87069  348.00000   27.14239             16.75619
727.21101   1117.00459  218.00000   21.03169             13.53084
726.66484   704.97253   182.00000   16.12801             14.56365
729.05902   997.62295   305.00000   26.01348             15.43419
728.22293   1336.22293  157.00000   16.05952             12.51005
729.72881   1359.99153  236.00000   18.88677             16.94088
729.89286   1538.37054  224.00000   21.07438             13.70053
728.63679   356.28302   212.00000   17.58928             15.44493
735.30645   882.91398   186.00000   23.04084             10.43845
737.28455   840.97967   246.00000   25.48810             12.34390
733.92727   1193.00909  110.00000   13.81362             10.30833
738.22951   1081.95082  305.00000   30.66714             13.03799
739.27957   1035.79570  186.00000   20.89797             11.35458
738.03846   722.72222   234.00000   19.55504             15.34783
740.03901   1320.19149  282.00000   21.03848             17.41132
738.98529   1451.17157  204.00000   16.74970             15.63532
741.06695   952.17992   239.00000   24.77101             12.60801
741.36957   871.96377   138.00000   17.43872             10.21525
741.69531   654.14844   256.00000   19.03227             17.13359
741.57303   1062.71910  178.00000   16.21287             14.01515
746.00490   900.67647   204.00000   27.61391             9.73132
740.29545   1126.90909  88.00000    12.85923             8.73979
742.79365   1161.66667  126.00000   15.48091             11.03716
744.04237   1047.61017  118.00000   15.02269             10.20773
744.84459   1184.85135  148.00000   16.58220             11.42160
749.88449   1277.76898  303.00000   33.31127             11.91158
749.93976   1215.59839  249.00000   24.15163             13.62330
743.27381   1099.41667  84.00000    12.89190             8.37869
744.67568   1074.81081  37.00000    7.84645              6.07737
748.48667   136.84667   300.00000   25.38074             15.23415
751.61039   1459.33766  154.00000   15.57900             12.57922
752.98661   726.04018   224.00000   21.39997             13.74819
753.03401   1155.14286  147.00000   16.94285             11.33996
758.99605   1226.03557  253.00000   30.79365             10.87331
756.82741   1044.01523  197.00000   20.05740             12.85222
754.02521   863.87395   119.00000   14.19036             10.80536
751.65854   1078.43902  41.00000    8.57704              6.08253
757.65000   613.41500   200.00000   16.50853             15.45939
760.62774   634.57664   274.00000   21.55267             16.32169
760.30726   1002.27933  179.00000   17.66844             12.98969
762.44275   686.04962   262.00000   19.25508             17.43531
757.60000   879.66667   45.00000    7.94945              7.47303
757.15789   887.94737   38.00000    7.41514              6.50051
761.90476   837.30357   168.00000   21.75666             9.84545
761.14286   855.55714   70.00000    10.61014             8.59670
764.51685   1120.34270  178.00000   24.68853             9.90560
769.56618   704.13603   272.00000   26.45873             13.37619
760.50000   1063.00000  44.00000    7.88554              7.03239
762.43836   872.19178   73.00000    10.37629             8.98163
767.92424   929.64141   198.00000   21.03420             11.99407
763.23810   882.76190   42.00000    8.63594              6.45769
769.19592   1143.45306  245.00000   19.08904             16.63546
771.33043   1288.32609  230.00000   20.20519             14.55387
777.91810   781.15086   232.00000   30.17340             10.17729
767.17526   1112.11340  97.00000    11.69238             10.55147
768.21488   1160.06612  121.00000   13.54590             11.37334
774.58007   472.03915   281.00000   22.61549             16.35635
772.17347   891.81633   196.00000   20.96363             11.95889
768.33333   1027.41026  39.00000    9.08431              5.54511
776.91837   993.93878   196.00000   22.58440             11.26954
778.33929   635.77679   224.00000   18.24386             15.67371
776.05357   1090.37500  112.00000   16.01919             9.11535
780.64014   760.49135   289.00000   26.05894             18.00444
779.77990   972.97608   209.00000   18.53792             14.54054
778.00976   1026.06829  205.00000   16.47051             16.21629
789.78378   560.99099   333.00000   50.37225             9.90170
778.24812   1043.88722  133.00000   14.68396             11.81201
780.37143   1128.33714  175.00000   20.21632             11.35329
781.89011   1321.45055  182.00000   17.81674             13.07971
784.18504   615.63386   254.00000   23.03871             14.23112
778.64516   820.87097   31.00000    6.80663              5.87244
781.38776   868.89796   49.00000    8.78717              7.08326
783.07407   1086.27160  81.00000    12.43877             8.50615
784.28365   1193.17788  208.00000   18.85268             14.10994
781.89474   878.86842   38.00000    9.21619              5.19891
782.04167   813.72917   48.00000    8.76833              6.99393
787.02235   945.82682   179.00000   18.81582             12.27896
798.75601   1537.91065  291.00000   32.85824             12.55086
787.29870   1097.35065  154.00000   15.87753             12.66102
784.67442   820.32558   43.00000    8.07948              6.83218
788.69892   1043.72043  93.00000    11.54030             10.29626
793.72989   1104.71839  174.00000   25.57115             9.26007
788.11628   885.11628   43.00000    7.69174              7.05690
793.74302   1449.03352  179.00000   15.70497             14.55677
793.83425   1074.57459  181.00000   21.70642             11.29484
794.07377   1208.99180  122.00000   14.58638             10.76128
794.79856   993.56115   139.00000   17.51345             10.64240
796.02235   650.29050   179.00000   16.65114             14.26001
792.27778   1028.16667  18.00000    5.28914              4.28322
801.14286   1003.73684  133.00000   18.85580             9.08863
800.06436   1289.86634  202.00000   19.94427             13.47285
798.10294   903.48529   68.00000    10.38800             8.54944
805.12821   1216.07692  234.00000   22.66356             13.29438
802.62051   1302.96410  195.00000   18.12779             13.83760
805.04918   710.09016   244.00000   20.70340             15.09056
803.99000   812.75500   200.00000   19.86486             13.14631
799.90909   885.70455   44.00000    9.14234              6.17749
805.50888   895.94083   169.00000   17.24475             12.66614
805.74603   658.09524   189.00000   16.85184             14.53485
806.83251   991.76847   203.00000   17.99075             14.89245
803.68182   1152.20455  44.00000    8.05042              6.94076
811.46122   604.43673   245.00000   21.02669             14.95171
808.94771   1021.80392  153.00000   18.36128             10.61670
811.84536   1441.51031  194.00000   19.51180             12.71974
812.50282   801.18644   177.00000   18.72632             12.10781
809.81481   1045.09259  108.00000   12.96201             10.63382
815.69647   506.61123   481.00000   37.15917             16.74518
812.66845   1273.33155  187.00000   17.53991             13.68007
812.90783   1062.51152  217.00000   21.06519             13.21394
813.73585   1140.78302  106.00000   13.96953             9.74977
817.18317   1191.50495  202.00000   22.43465             11.53688
825.26582   768.02110   237.00000   30.59642             10.11183
820.00575   895.25287   174.00000   20.08675             11.26504
821.80874   1248.44809  183.00000   20.88962             11.52241
822.40385   833.93590   156.00000   19.32681             10.27339
821.71739   1107.64674  184.00000   15.81363             14.94781
831.04096   339.48805   293.00000   25.88120             14.60157
826.80829   689.94301   193.00000   17.53755             14.51751
823.57831   788.79518   83.00000    14.61067             7.37792
827.67327   900.77228   101.00000   15.71815             8.57731
824.11111   960.91667   72.00000    11.23555             8.25351
826.34132   1023.53293  167.00000   16.02289             13.29703
826.40719   1127.18563  167.00000   15.70148             13.59229
835.29137   1170.02518  278.00000   32.03659             11.28701
823.78261   952.21739   23.00000    5.73123              5.18248
828.14851   1150.87129  101.00000   16.53536             7.90185
832.01010   1289.92424  198.00000   19.83350             12.78231
832.85799   1275.67456  169.00000   17.83035             12.12810
832.64286   1259.22222  126.00000   14.19192             11.31706
839.75966   621.93133   233.00000   23.22509             13.10338
843.20070   841.25704   284.00000   26.28271             13.91005
834.81081   962.35135   37.00000    10.72522             4.46489
836.22302   1302.46043  139.00000   13.91957             12.87182
854.87313   594.24876   402.00000   47.14770             11.68942
834.46667   957.26667   45.00000    8.15061              7.03411
838.94521   1113.13014  146.00000   18.05961             11.00920
841.76471   565.76923   221.00000   18.07255             15.62362
843.88344   886.08589   163.00000   19.88546             10.65753
842.61616   1153.45960  198.00000   17.50969             15.26060
848.25993   484.58484   277.00000   25.02432             14.52630
850.44697   951.72727   264.00000   27.32517             12.80069
844.67358   1086.02591  193.00000   17.78400             13.88118
850.29609   796.96089   179.00000   25.49441             8.99188
848.67647   1250.50588  170.00000   20.32182             11.41238
849.98507   772.52985   134.00000   14.32745             11.94098
850.26562   873.59375   64.00000    14.06330             5.76230
849.33974   1112.00641  156.00000   15.66061             13.12955
851.99425   1444.35057  174.00000   17.74911             12.57125
851.87500   940.81818   88.00000    12.57275             8.91688
859.12045   1010.32213  357.00000   34.03968             14.87696
853.78286   1201.08000  175.00000   15.58831             14.34550
852.80469   1298.58594  128.00000   13.84990             11.87758
856.78519   978.47407   135.00000   15.14042             11.39868
859.52381   1223.21693  189.00000   16.85232             14.50266
860.62393   1476.73504  234.00000   23.91666             12.56472
865.35185   1354.18519  270.00000   27.21477             12.86729
860.00000   1457.57143  175.00000   15.02959             14.86304
862.09910   526.09009   222.00000   19.61796             14.60106
861.07018   1133.53216  171.00000   18.45073             11.95465
861.47619   1098.89286  84.00000    11.81092             9.30565
861.77966   1074.01695  59.00000    9.84475              7.64872
861.39583   890.45833   48.00000    8.12191              7.51664
869.96035   1070.88106  227.00000   32.08913             9.33900
867.63478   1238.50435  230.00000   18.33660             16.05967
869.55422   779.67470   166.00000   18.75833             11.46075
866.93443   1086.84153  183.00000   17.57119             13.32347
864.27473   1143.20879  91.00000    14.04708             8.26916
865.27619   1179.18095  105.00000   13.03529             10.30920
867.86864   919.94492   236.00000   24.62732             13.16201
872.02113   950.61268   284.00000   20.66295             17.70298
871.02105   991.96842   190.00000   17.64849             13.74973
872.16327   933.87075   147.00000   17.96350             10.51561
871.17791   1028.55215  163.00000   17.57883             11.83965
869.65000   1191.65833  120.00000   16.41744             9.41487
875.87500   1293.90761  184.00000   20.57838             11.39661
874.10417   1376.23611  288.00000   20.29385             19.30126
872.63309   972.90647   139.00000   15.27909             11.74291
875.40667   1153.72000  150.00000   18.08137             10.88807
880.32353   825.44706   170.00000   16.86890             12.91340
881.16774   1030.85806  155.00000   19.29401             11.36041
882.80769   1088.94872  156.00000   18.21959             10.99779
882.92105   1237.11842  152.00000   17.05097             11.41989
883.67614   529.85795   176.00000   17.73334             12.68071
886.71084   991.69880   166.00000   18.23348             11.61549
886.30827   919.83459   133.00000   13.34350             12.69984
885.38182   934.78182   55.00000    10.80311             6.49884
887.31126   1126.56291  151.00000   15.08804             12.81178
888.19355   1008.26452  155.00000   14.85343             13.34428
889.16484   1154.96154  182.00000   17.15049             13.72877
889.29609   1220.97207  179.00000   15.60669             14.96437
889.57143   1454.05495  182.00000   17.44176             13.31141
893.63281   818.92578   256.00000   29.45330             11.41032
901.84502   690.43778   884.00000   46.61505             25.53434
897.98947   902.97895   190.00000   21.54154             11.69956
898.37297   765.94595   185.00000   19.28795             12.25737
897.32335   964.15569   167.00000   17.69625             12.31876
897.98980   1121.75510  196.00000   20.78231             13.07246
893.15000   1089.40000  40.00000    7.96140              6.51890
900.44318   390.03788   264.00000   21.13313             16.25128
900.98760   532.72314   242.00000   23.05522             13.72654
898.18478   929.23913   92.00000    15.66763             7.54257
899.23500   870.25500   200.00000   25.46950             10.09260
901.86979   1082.69792  192.00000   15.98100             15.30119
902.77439   1195.98780  164.00000   16.57557             12.68163
911.81384   848.39618   419.00000   32.05055             16.83379
903.13077   1169.48462  130.00000   13.84609             12.08976
903.66443   1297.76510  149.00000   16.93773             11.26791
903.15702   1183.40496  121.00000   13.48642             11.47432
905.74595   943.45946   185.00000   18.92096             12.51714
904.00000   990.52273   176.00000   19.58636             11.61516
907.85606   614.09470   264.00000   21.91329             15.65923
904.37500   917.15278   72.00000    11.20355             8.21052
911.66667   375.03213   249.00000   21.12792             15.08241
911.22222   1206.19697  198.00000   16.37131             15.50964
916.46835   359.43987   316.00000   25.62099             16.26668
930.31308   81.03505    428.00000   41.48507             16.06236
917.10959   884.22603   146.00000   14.83766             12.73056
918.60952   963.25714   105.00000   13.27242             10.14197
923.96392   1147.60309  194.00000   17.62071             14.03531
926.89899   1106.16667  198.00000   21.56991             13.11295
928.21143   1251.19429  175.00000   16.48611             13.55572
925.25316   926.88608   79.00000    10.42112             9.72221
933.45302   305.81544   298.00000   27.83713             13.73590
929.21250   1095.51875  160.00000   16.38449             12.53078
931.65563   1036.68212  151.00000   16.78236             11.60400
937.03182   1332.82727  220.00000   22.20235             12.74143
942.73930   656.09339   514.00000   37.98716             18.24470
935.39181   1021.22222  171.00000   15.37960             14.20442
935.28058   859.96403   139.00000   15.15678             11.66988
938.64356   991.46040   202.00000   18.40661             14.69189
939.40000   805.52105   190.00000   18.40063             13.39392
941.00909   430.40303   330.00000   28.22422             15.07051
941.59615   1042.58974  156.00000   19.54119             10.32887
943.98086   927.28708   209.00000   20.09290             13.83164
942.58442   1281.76190  231.00000   22.58575             13.18325
946.72770   1462.00000  213.00000   17.46532             15.62326
944.43077   815.80000   65.00000    9.62195              8.62518
944.81928   1137.31325  166.00000   18.40415             11.56707
950.12397   831.07438   121.00000   14.36887             10.76317
952.10303   1148.43636  165.00000   15.52452             13.64629
960.55273   1207.89091  275.00000   24.74203             16.98611
958.52302   906.89503   543.00000   31.55531             23.45836
957.94400   1124.10400  250.00000   28.59174             11.60764
957.38824   1105.51765  85.00000    12.63007             8.65516
964.35678   1251.69347  199.00000   22.17544             11.51734
968.83254   839.44498   209.00000   17.21524             15.52277
973.13402   1197.17010  194.00000   20.37591             12.31167
971.60432   865.48201   139.00000   17.43959             10.58699
973.51232   1232.26601  203.00000   19.04196             14.09304
976.13736   969.09341   182.00000   18.50018             12.63454
981.89349   1185.09763  338.00000   23.45629             18.92122
979.60891   1247.22772  202.00000   17.98130             14.59045
984.39286   1348.59416  308.00000   25.94978             15.25704
981.25221   887.19912   226.00000   19.57583             14.83306
983.66864   1263.45562  169.00000   17.45928             12.34468
993.28033   1047.85356  239.00000   20.17422             15.81175
995.54768   350.74387   367.00000   28.21649             16.69953
992.80000   1376.68070  285.00000   20.92114             18.33967
995.47742   1475.32903  155.00000   16.41022             12.11597
997.80488   1488.95122  205.00000   18.25459             14.44166
998.89796   62.50510    196.00000   17.06382             14.73043
1000.43949  1261.54140  157.00000   14.59665             13.71218
1001.32967  899.42857   182.00000   17.03628             13.73332
1004.65747  954.45287   435.00000   28.50929             20.37289
1003.59341  1301.40659  182.00000   16.57314             14.30427
1007.37857  1057.97143  140.00000   15.42728             11.58478
1020.63468  269.00337   594.00000   33.78824             25.17662
1019.73964  910.90828   338.00000   26.00595             16.85610
1018.62679  1100.01914  209.00000   21.22286             13.72690
1013.45638  1293.12752  149.00000   16.40151             12.05977
1014.86310  1117.68452  168.00000   16.04780             13.39526
1017.55114  881.90909   176.00000   15.40653             14.69419
1017.92166  995.88479   217.00000   19.03412             15.20156
1019.32000  1284.38667  150.00000   16.94645             11.46301
1019.20915  1229.64052  153.00000   16.32315             11.95483
1028.47941  1568.08529  340.00000   34.19784             13.01161
1023.02652  793.67803   264.00000   23.37462             14.57540
1031.75610  1047.32114  246.00000   21.57793             15.30245
1034.10000  1230.38125  160.00000   16.25525             12.79770
1036.15058  958.91506   259.00000   28.72068             12.12178
1037.90455  1074.60909  220.00000   23.21256             12.20600
1038.20661  1186.03306  121.00000   13.21759             11.80838
1043.86784  1254.99559  227.00000   19.46456             14.94737
1049.26667  1189.17436  195.00000   18.65142             13.63095
1053.16393  966.11475   244.00000   20.77488             15.19360
1059.25524  64.48601    286.00000   21.36956             17.17544
1071.97509  1030.42705  562.00000   32.81825             23.29218
1070.97345  1092.16372  226.00000   20.76319             14.37144
1070.81304  931.09130   230.00000   20.83249             14.14804
1072.75646  1314.61624  271.00000   21.08025             17.99283
1078.68627  1382.07108  408.00000   36.13708             15.98115
1071.37912  1165.48901  182.00000   17.37241             13.68191
1079.45789  1189.74561  570.00000   30.12919             24.44980
1075.24336  1067.69912  226.00000   18.90777             15.50887
1078.81218  1155.49239  197.00000   19.62577             13.01893
1088.32302  1241.05155  291.00000   22.67396             17.15987
1090.79479  1271.22813  960.00000   46.61856             27.85743
1090.32865  979.87360   356.00000   35.00573             13.77946
1106.37851  917.22314   605.00000   49.12591             16.73060
1098.99623  1013.20000  265.00000   22.91152             15.75877
1100.65411  1348.52740  292.00000   27.11143             14.58570
1103.28000  872.08800   250.00000   26.86033             11.97165
1111.06024  1179.44880  332.00000   33.25540             13.80596
1119.56274  450.47148   263.00000   26.94957             12.69240
1124.89520  891.77729   229.00000   20.02618             14.66274
1135.25424  967.05720   472.00000   32.26992             19.42669
1132.19601  857.31229   301.00000   26.68868             14.71629
1138.61538  470.62088   182.00000   19.35457             12.15594
1147.10320  392.62278   281.00000   21.01877             17.32110
1158.96456  949.51149   1044.00000  52.77842             26.31861
1156.99567  1090.39827  231.00000   19.20929             15.55877
1167.35117  1200.47492  299.00000   28.91402             13.76253
1164.67742  1009.30876  217.00000   17.85741             15.79319
1167.57764  1051.47826  322.00000   23.73084             17.76235
1173.02905  1024.20332  241.00000   19.25936             16.15034
1196.43311  997.44444   441.00000   35.65336             17.00340
1221.25789  1289.55263  190.00000   16.44011             14.79629
1241.31173  903.90123   324.00000   31.72891             14.30566
1236.66154  1281.43077  130.00000   13.67116             12.15499
1243.04734  1238.95266  169.00000   16.22277             13.34627
1254.71542  434.33992   253.00000   22.23100             14.82539
1251.32530  1265.98795  166.00000   15.77322             13.48687
1253.39355  1106.03226  155.00000   16.48328             12.03758
1261.27113  979.70070   284.00000   33.06277             12.00078
1256.96698  1238.90566  212.00000   20.61997             13.19579
1261.29375  1115.28125  160.00000   16.52062             12.41865
1265.69869  1024.92576  229.00000   22.32470             13.13340
1263.01010  1157.86869  198.00000   16.57048             15.30466
1271.83708  1137.58427  178.00000   17.30685             13.20972
1277.59076  189.31683   303.00000   25.87451             15.09374
1274.00000  1010.71429  70.00000    10.86015             8.20154
1282.77778  1354.73016  378.00000   32.88819             15.67693
1276.31655  1086.82014  139.00000   14.32612             12.45456
1282.24167  1515.30000  120.00000   21.52737             7.22482
1288.93793  1076.65517  145.00000   14.45460             12.82120
1303.67919  433.70520   346.00000   34.28076             13.01002
1294.60870  1090.68841  138.00000   14.88546             11.87066
1297.28261  1517.32609  92.00000    14.66598             8.36241
1302.43011  1071.03226  93.00000    13.42447             8.97492
1308.49239  997.78173   197.00000   18.52892             13.54133
1309.88793  1313.25431  232.00000   23.05633             13.32606
1312.57895  1073.57895  114.00000   14.63322             9.95354
1320.66904  778.72242   562.00000   30.79206             23.74199
1320.30620  1114.27519  258.00000   31.10215             11.30781
1318.65432  898.28807   243.00000   19.45268             15.95002
1318.04198  818.08015   262.00000   24.98630             13.61788
1319.12444  855.42222   225.00000   24.07683             12.06046
1321.97797  872.23348   227.00000   20.90328             13.84197
1324.71304  798.57391   230.00000   18.28697             16.19901
1327.32812  969.91406   256.00000   19.55459             16.84568
1338.09048  1083.47143  210.00000   18.51531             14.49634
1345.25085  987.57627   295.00000   21.79017             17.66449
1344.71970  1594.00000  264.00000   23.82151             14.54793
1344.89591  1033.68401  269.00000   19.50221             17.81329
1354.03484  1295.10105  287.00000   25.21153             15.59462
1351.72609  819.17391   230.00000   18.54465             15.82769
1349.38919  922.44324   185.00000   21.07285             11.49244
1355.74043  451.83404   235.00000   20.10404             14.93796
1354.89506  862.76543   162.00000   14.93419             13.91375
1357.92929  928.11616   198.00000   21.51876             11.87480
1363.38846  210.42308   260.00000   21.51877             15.52079
1365.95333  858.53333   150.00000   16.77008             11.47947
1380.12139  734.80491   692.00000   32.68939             28.10948
1374.91919  774.92593   297.00000   23.34390             16.47939
1375.40000  817.44615   260.00000   26.44290             12.72722
1377.63366  920.52475   202.00000   17.69672             14.98103
1386.06738  1455.31560  282.00000   25.01428             14.91806
1386.67742  957.17339   248.00000   21.24260             15.13252
1384.40845  998.98592   142.00000   16.00650             11.30592
1392.80387  984.50829   362.00000   28.91738             17.54450
1387.21600  1049.31200  125.00000   13.39087             11.92562
1401.25370  856.73996   473.00000   31.11473             21.59034
1404.68954  757.20915   306.00000   31.22629             12.76370
1408.74336  1272.02655  226.00000   23.21266             13.56209
1404.95312  1055.29688  128.00000   14.54269             11.39363
1410.21333  1609.85333  225.00000   19.83042             14.85671
1411.16194  985.48178   247.00000   21.59179             15.63168
1418.40968  797.91935   310.00000   25.72843             15.77688
1418.28148  1057.44444  135.00000   14.19987             12.18782
1434.32353  943.66275   510.00000   47.42849             17.20558
1430.18565  891.34599   237.00000   21.91291             13.83412
1454.81250  227.21250   400.00000   37.20220             14.49109
1447.22269  878.10924   238.00000   19.34208             15.82548
1450.76412  773.06645   301.00000   24.15811             16.11533
1452.91506  854.10811   259.00000   26.85566             12.32319
1455.47030  1042.72772  202.00000   19.27671             13.40608
1459.82026  1451.80392  306.00000   28.83779             14.34341
1455.30601  1115.87978  183.00000   16.29301             14.38881
1454.73604  1145.00000  197.00000   18.94874             13.29834
1465.04583  866.67500   240.00000   23.02995             13.32033
1468.85185  753.20741   270.00000   23.27756             14.82507
1477.06464  1249.09506  263.00000   32.61125             10.54368
1473.30976  1550.68687  297.00000   21.73904             17.98017
1479.02584  303.75194   387.00000   29.05722             17.18829
1486.80150  1597.78277  267.00000   24.35299             14.20883
1491.33453  1506.08993  278.00000   22.09576             16.10357
1497.38723  727.51064   235.00000   23.84666             12.69275
1495.64455  1200.62085  211.00000   19.00525             14.26277
1492.93852  1178.79918  244.00000   36.64546             9.11194
1496.64371  1415.65269  334.00000   23.43413             18.62409
1497.09483  1323.06897  116.00000   12.89908             11.52571
1502.66502  1029.77340  203.00000   18.95972             14.17139
1501.74297  1334.86345  249.00000   19.87327             16.49153
1522.80342  1090.75214  234.00000   44.24299             7.38205
1509.61154  1511.83077  260.00000   24.56681             13.72025
1513.78346  854.82677   254.00000   21.19392             15.32165
1517.12707  214.87293   362.00000   28.89744             16.01799
1523.48109  1306.57143  476.00000   40.04663             16.06537
1518.62807  918.90877   285.00000   23.80397             15.35019
1518.05291  1015.12698  189.00000   17.73412             13.63284
1524.10156  836.41016   256.00000   23.31044             14.15378
1521.41603  1117.43511  262.00000   20.52241             16.27512
1524.69424  1044.61511  278.00000   28.89300             12.73996
1532.44298  948.49561   228.00000   23.87645             12.65894
1537.32239  1379.97612  335.00000   26.43723             16.50141
1538.55072  1175.61353  207.00000   20.84645             12.73435
1545.91667  861.82353   204.00000   19.62741             13.25905
1549.60733  1146.19372  191.00000   17.90881             13.67605
1553.73196  1476.20275  291.00000   26.90308             14.32554
1558.46900  1197.67655  371.00000   32.16698             15.25084
1556.51818  1589.70303  330.00000   24.64736             17.16622
1556.06693  1011.41732  254.00000   19.59470             16.77340
1554.77381  1078.37500  168.00000   16.25783             13.24297
1559.49474  1089.52105  190.00000   19.76339             12.67118
1566.51452  1055.21992  241.00000   19.76309             15.92605
1568.28054  1131.65158  221.00000   22.06152             12.90995
1570.44578  864.03213   249.00000   19.63458             16.17903
1574.55898  1358.26134  551.00000   43.20863             18.01622
1573.87879  947.50649   231.00000   21.56067             13.72304
1581.99533  1006.35047  214.00000   20.61026             13.26155
1583.75309  975.08230   243.00000   20.49462             15.13363
1587.53279  873.69672   244.00000   19.13725             16.33506
1589.30213  939.68511   235.00000   20.99045             14.26544
1599.80952  1152.64881  168.00000   22.38551             9.69299
1601.37436  1123.87692  195.00000   17.89770             13.95295
1607.75336  1000.43946  223.00000   17.40247             16.46293
1616.44939  921.52227   247.00000   22.38333             14.23083
1633.78507  1322.87761  335.00000   47.98653             9.85042
1621.45213  1055.98404  188.00000   18.58170             12.96964
1630.26344  1063.18280  186.00000   20.35640             12.03105
1634.15301  901.10929   183.00000   20.02072             11.76471
1638.43396  950.57075   212.00000   21.09968             12.87139
1646.54523  864.20905   818.00000   35.81710             30.99890
1643.48649  1101.01802  222.00000   23.46425             12.40230
1643.56542  1064.54206  214.00000   19.35123             14.33685
1647.67246  839.93548   403.00000   29.10565             21.93405
1645.41791  1181.50000  268.00000   24.22901             14.46188
1648.30357  1129.50595  168.00000   25.76589             9.66466
1655.64024  1134.64024  164.00000   20.43892             10.31984
1659.25552  178.41956   317.00000   24.71032             16.54587
1663.30714  1055.25000  280.00000   24.90002             14.63439
1669.27619  961.58571   210.00000   22.18512             12.23603
1672.55172  21.02682    261.00000   23.05834             14.85608
1673.90459  946.74912   283.00000   22.16925             16.39897
1679.39286  1219.65816  196.00000   19.81430             12.71804
1685.09677  1108.39785  186.00000   17.81137             13.55148
1690.14373  794.64832   327.00000   32.60861             13.72008
1689.10798  1002.61502  213.00000   18.08159             15.06794
1695.82286  954.72571   175.00000   16.06552             13.95949
1698.25862  1047.99138  232.00000   20.08122             14.88175
1696.82819  1254.23348  227.00000   21.79450             13.52136
1706.41485  1710.25328  229.00000   23.96446             12.54734
1712.20913  1190.58935  263.00000   24.67935             14.09054
1709.36047  1059.34496  258.00000   24.56340             13.58199
1713.06693  1220.78346  254.00000   26.39208             12.32973
1713.50904  927.06928   332.00000   24.53361             18.80400
1719.38390  788.54180   323.00000   32.56750             13.01369
1717.98165  1244.17431  218.00000   25.56201             11.11245
1725.08333  1273.94444  216.00000   27.40395             10.06516
1726.01266  1082.34177  237.00000   21.07881             14.88260
1734.70386  1020.93562  233.00000   18.74852             15.86159
1745.23264  794.19097   288.00000   30.72667             12.55123
1746.85075  1298.05672  335.00000   27.15801             15.97587
1761.99687  1326.52978  319.00000   35.99393             11.88066
1763.46774  95.80108    186.00000   25.24153             9.86470
1768.43854  1236.73422  301.00000   23.26138             16.65049
1776.46205  1302.26403  303.00000   27.92101             13.92643
1781.31361  971.43491   338.00000   28.74320             15.06272
1785.44985  1202.93009  329.00000   34.30205             12.54943
1775.50000  1990.63253  166.00000   17.43464             12.19295
1776.78151  63.06723    238.00000   19.78718             15.49522
1784.81405  33.33884    242.00000   21.13212             14.63275
1791.95439  1096.45263  285.00000   25.38195             14.90543
1793.84877  1277.83025  324.00000   33.55350             13.91872
1817.16000  1540.34000  250.00000   22.06007             14.48828
1820.11475  390.32459   305.00000   21.02026             18.60874
1829.12044  326.99270   274.00000   35.16872             10.51142
1825.66556  1101.74503  302.00000   25.43439             15.61151
1826.24186  1207.05116  215.00000   20.46909             13.40258
1827.22000  798.56000   200.00000   19.17299             13.37028
1848.45188  1346.62343  239.00000   29.65306             10.80741
1852.90688  313.70445   247.00000   28.74189             11.47691
1861.08571  1340.07347  245.00000   23.40483             13.39120
1876.97394  1273.45603  307.00000   20.62693             19.35270
1882.06609  371.48563   348.00000   23.00801             19.41991
1881.92473  1541.41219  279.00000   22.05392             16.54597
1888.38431  1223.86275  255.00000   30.13043             11.07773
1890.61808  1415.66181  343.00000   33.01031             13.46319
1890.07489  1380.97357  227.00000   23.18602             12.65047
1899.40594  1323.51155  303.00000   26.14067             15.33972
1900.22420  1358.24199  281.00000   23.00238             15.62539
1912.31173  802.14815   324.00000   31.11338             13.43947
1916.65753  1331.12329  146.00000   18.71519             10.21709
1927.43062  1468.44976  209.00000   19.93662             13.56334
1936.21983  595.61638   232.00000   21.82315             13.64329
1935.50394  1556.43307  127.00000   16.88272             9.63284
1941.17040  1728.65022  223.00000   23.64957             12.07738
1944.75111  1526.95556  225.00000   18.67447             15.58465
1955.98174  1263.87671  219.00000   21.09947             13.39555
1958.58609  431.09603   302.00000   22.99274             17.13662
1961.64091  798.43182   220.00000   22.21910             12.75331
1965.58824  1278.11765  204.00000   19.02522             13.70733
1972.69880  1467.77510  249.00000   21.88385             14.54617
1986.03114  1038.44983  289.00000   24.35729             15.39004
1991.59788  1711.37566  189.00000   19.13360             12.60645
1994.69038  1332.02510  239.00000   20.65909             15.12601
1997.44043  1304.65343  277.00000   19.83507             18.12869
1998.44152  1256.46199  342.00000   29.23514             15.18119
2007.99614  1445.12741  259.00000   26.21087             12.59238
2010.31962  806.54114   316.00000   24.24859             16.78200
2007.31633  1508.20918  196.00000   18.74433             13.65695
2014.25641  1470.74359  234.00000   21.73475             13.81288
2018.28477  718.08940   302.00000   31.14190             13.75043
2016.19620  1496.92405  158.00000   20.04879             10.11685
2015.78603  1385.25764  229.00000   18.82670             15.71210
2014.69643  2017.67857  112.00000   15.10353             9.52659
2021.55749  1325.81185  287.00000   27.12671             13.75784
2019.23423  1073.82883  222.00000   18.08381             15.73624
2022.29060  1059.94444  234.00000   22.66784             13.19866
2025.84880  1232.76289  291.00000   30.09997             12.40765
2027.05611  481.39604   303.00000   20.90693             18.76862
2041.40000  1684.14444  90.00000    13.40462             8.86441