# Filename: Nuclei_bidi_pfa_003.npz
# Voxel size (nm): (108, 108)
# Area quantity: voxels
# Num nuclei detected: 1085
Y           X           AREA       MAJOR_AXIS_LENGTH    MINOR_AXIS_LENGTH
30.99291    1120.99291  141.00000  15.59311             11.57777
94.69643    1319.44643  112.00000  13.35289             10.68550
117.86577   1182.79195  149.00000  17.79288             10.85674
139.95000   695.34643   280.00000  20.24989             17.67433
148.72031   712.49425   261.00000  19.58640             17.35261
162.90517   778.64655   232.00000  22.31623             13.48237
166.32971   729.30435   276.00000  24.55292             14.53101
175.84404   763.22936   218.00000  19.04822             14.76820
179.98745   836.43933   239.00000  18.38701             16.67555
184.30620   787.50388   258.00000  23.66911             14.06883
202.95669   845.98425   254.00000  20.43366             16.00020
207.47603   943.26712   292.00000  28.30884             13.18908
215.39200   908.19200   250.00000  22.26828             14.56857
216.52679   987.34375   224.00000  20.69758             13.88965
413.26636   740.71963   214.00000  18.28280             15.01216
427.88152   756.42180   211.00000  20.37880             13.26590
452.33168   741.11386   202.00000  18.19642             14.16983
468.42562   422.36364   242.00000  19.71740             15.70161
482.17647   307.86096   187.00000  17.43333             13.69955
487.01230   276.90984   244.00000  19.04765             16.36486
488.62544   388.00707   283.00000  24.49322             15.42288
499.71574   723.31472   197.00000  17.45344             14.46411
501.87838   501.13514   222.00000  23.57736             12.13339
500.59494   425.16456   237.00000  21.50842             14.05775
515.52000   454.07143   350.00000  28.19715             15.86546
512.11885   303.32377   244.00000  22.49921             13.89233
517.60619   724.11504   226.00000  17.28781             16.79326
519.52797   416.32867   286.00000  24.43133             14.99832
522.52448   367.64685   286.00000  24.01700             15.22984
527.13182   313.10455   220.00000  21.71931             13.02726
529.27338   290.53597   278.00000  22.69516             15.83552
529.19847   330.06870   262.00000  24.06723             13.95638
531.84252   937.66535   254.00000  19.76877             16.85555
537.51625   416.16245   277.00000  21.47685             16.66729
538.51883   908.40167   239.00000  18.06964             17.06465
543.15534   702.41748   206.00000  19.63016             13.42316
544.48858   959.15982   219.00000  18.85275             14.79783
549.86441   876.61582   354.00000  22.45071             20.15699
552.89394   245.71970   264.00000  26.17372             13.16270
556.08209   476.48507   268.00000  22.08141             15.51894
571.65957   508.81915   94.00000   12.01456             10.02956
572.30588   199.49412   85.00000   12.48277             8.82246
579.09524   250.29004   231.00000  18.42776             16.22516
577.16197   214.53521   142.00000  15.04735             12.03327
581.92245   498.48571   245.00000  22.57525             13.87251
584.38278   702.63636   209.00000  17.87874             15.08971
583.92350   520.22404   183.00000  17.81233             13.16350
589.88148   227.67778   270.00000  20.75078             16.65490
596.65421   548.84813   428.00000  26.88871             20.46527
595.50215   828.92704   233.00000  19.33601             15.45280
598.12239   977.37015   335.00000  24.85645             17.88853
598.63134   764.77419   217.00000  17.80732             15.65472
601.66553   677.02730   293.00000  21.04379             17.83883
606.03042   843.84791   263.00000  23.83435             14.32256
617.87025   572.92722   316.00000  21.81165             19.13177
617.80059   616.41935   341.00000  25.74697             17.01926
620.32308   643.43846   260.00000  21.53265             15.70200
621.25899   763.48561   278.00000  20.36984             17.78105
620.61889   817.64495   307.00000  21.91847             18.10669
621.05128   856.29060   234.00000  22.28294             13.46570
629.70290   979.02174   276.00000  27.47123             13.12035
638.50000   887.77640   322.00000  21.04809             19.55858
638.02564   657.90256   195.00000  17.21756             14.54712
639.09055   844.25591   254.00000  19.20707             16.92003
637.82609   620.24638   69.00000   10.30118             8.52083
660.08621   646.42529   174.00000  16.06953             13.78317
662.86920   905.61181   237.00000  17.60141             17.17260
666.21154   929.20385   260.00000  22.50223             14.77913
673.18000   140.85667   300.00000  32.43575             12.43791
679.27830   643.37264   212.00000  18.77330             14.52222
688.11765   133.65176   425.00000  36.21342             15.34937
689.71324   962.43015   272.00000  23.05642             15.09407
713.04981   961.87739   261.00000  22.84926             14.57622
719.41292   599.16011   356.00000  23.97498             18.92728
722.18085   267.54255   282.00000  25.49379             14.24942
729.98696   995.05217   230.00000  20.46760             14.40368
734.05199   316.50153   327.00000  31.41079             13.30784
752.65278   359.11458   288.00000  23.78526             15.61908
755.93522   1012.22267  247.00000  20.45184             15.86289
761.35345   1058.60632  348.00000  24.79379             18.00660
763.09191   538.60662   272.00000  18.73529             18.54474
770.77160   1409.59877  162.00000  17.13156             12.18735
772.72574   1371.70042  237.00000  19.91586             15.20748
772.74678   390.02575   233.00000  20.55933             14.52077
773.14583   1446.44271  192.00000  17.27673             14.25208
780.61224   1066.19898  196.00000  17.31768             14.43910
784.80745   1463.53106  322.00000  27.39266             15.45870
780.97516   1406.56522  161.00000  18.70774             11.13574
782.77778   943.70370   216.00000  18.66196             14.73907
783.90385   1098.25385  260.00000  20.59643             16.16907
787.60500   539.89500   200.00000  17.67691             14.43516
788.44000   466.50667   225.00000  19.33621             14.90918
799.50867   506.50867   173.00000  17.01608             13.10781
801.81407   1448.95477  199.00000  16.95949             15.01861
805.01887   450.57736   265.00000  25.78190             13.17831
807.93860   494.96491   228.00000  20.04827             14.57542
809.06512   924.72558   215.00000  18.75730             14.75656
820.74886   464.99543   219.00000  18.20606             15.31243
827.80541   1517.44865  185.00000  16.40320             14.47814
830.49785   500.40343   233.00000  21.19434             14.16240
832.07955   903.76894   264.00000  19.79829             17.30071
835.55939   778.86207   261.00000  19.63201             17.14714
838.05742   235.13397   209.00000  19.94401             13.48620
836.45306   572.17551   245.00000  23.13271             13.59016
846.14444   820.58148   270.00000  22.45760             15.42730
846.35565   347.25105   239.00000  19.99184             15.34993
842.85915   448.88732   71.00000   11.38627             7.97717
849.49609   1540.33984  256.00000  19.91088             16.56868
848.86528   549.47668   193.00000  17.09280             14.50079
854.98264   622.18403   288.00000  22.01437             16.65128
855.83193   900.14286   238.00000  20.50738             14.85549
851.63333   516.36667   30.00000   6.49102              5.79348
864.48641   835.69837   368.00000  23.81003             19.88265
860.15021   880.68670   233.00000  20.64250             14.47354
862.52646   360.86630   359.00000  23.90620             19.20064
861.16477   1562.05682  176.00000  16.93213             13.27330
862.06132   205.00943   212.00000  17.19522             15.78746
863.00847   582.83475   236.00000  19.61699             15.32551
865.39378   262.73057   193.00000  16.54478             14.95055
868.09052   631.68534   232.00000  20.81790             14.84412
873.09600   446.96800   250.00000  21.44606             14.84853
870.07006   568.85350   157.00000  15.57607             12.86960
871.22870   722.43049   223.00000  17.13293             16.70388
871.93284   913.00373   268.00000  20.93558             16.32559
874.81304   549.69130   230.00000  19.07290             15.38553
876.00000   811.34156   243.00000  20.82455             14.94552
878.17035   603.84543   317.00000  28.56616             14.35506
877.93569   768.93891   311.00000  22.95321             17.32742
880.14612   397.49772   219.00000  19.16451             14.61331
878.76860   850.82231   242.00000  22.06771             14.12757
878.42657   535.32168   143.00000  15.85313             11.49031
878.84211   795.26316   19.00000   5.73341              4.22275
885.25833   955.82500   360.00000  29.20254             15.98501
885.98598   719.54206   214.00000  19.75005             14.01992
890.25994   326.90826   327.00000  23.29907             18.15694
888.96476   628.77533   227.00000  18.38622             15.70910
895.07673   287.78005   391.00000  28.90304             17.35214
892.50270   429.21622   370.00000  27.23176             18.45541
894.13483   167.30337   178.00000  15.90051             14.27717
894.03000   656.05667   300.00000  26.13937             14.76123
897.49198   519.52406   187.00000  17.04706             14.69248
898.75833   674.30417   240.00000  19.87762             15.56916
901.14706   210.96078   204.00000  17.55031             14.83003
903.85253   957.86636   217.00000  19.72079             14.08812
904.47887   1016.30282  284.00000  22.79806             16.01626
907.42449   552.04898   245.00000  20.35673             15.50209
910.34021   811.98454   194.00000  18.86293             13.21138
915.48454   339.61856   388.00000  29.10496             17.25050
915.27957   207.54301   186.00000  16.26517             14.84010
914.99706   703.02647   340.00000  29.49921             15.21600
917.85638   515.52660   188.00000  18.34244             13.15297
921.52761   1434.73620  163.00000  15.32926             13.62913
923.58051   607.41102   236.00000  18.65130             16.20526
926.96333   402.47188   409.00000  28.76707             18.15368
926.57258   373.80242   248.00000  21.71479             14.64695
924.74742   624.87113   194.00000  16.01714             15.57621
927.89764   820.56299   254.00000  21.92430             14.82521
925.52332   568.21244   193.00000  19.72499             12.46830
928.32296   871.99222   257.00000  21.32879             15.38319
927.57416   1048.58373  209.00000  18.67640             14.26901
928.72481   968.51938   258.00000  21.31504             15.63495
930.33249   170.41814   397.00000  25.29115             20.15315
928.62437   490.76650   197.00000  16.36409             15.34279
929.57143   912.20000   210.00000  17.07886             15.70351
930.88442   698.18090   199.00000  17.34493             14.62441
929.94118   768.58824   221.00000  22.34844             12.61780
933.11374   556.82938   211.00000  19.02873             14.25570
935.87069   592.91810   232.00000  19.40162             15.31155
936.87124   452.24464   233.00000  21.73254             13.94846
938.48585   654.47170   212.00000  17.74992             15.27422
937.28230   1349.09569  209.00000  17.61286             15.23098
939.01299   219.59307   231.00000  18.24591             16.24973
936.96602   1320.44175  206.00000  20.40099             12.96742
938.12500   1385.63636  176.00000  18.32358             12.28705
938.05085   1074.84746  177.00000  19.51975             11.66920
938.72512   1258.68246  211.00000  23.67596             11.66195
946.46063   639.38189   254.00000  23.58558             13.88394
945.44783   1286.10000  230.00000  18.37529             15.99964
947.02186   231.55191   183.00000  17.27960             13.58916
947.96078   389.16863   255.00000  20.17243             16.19481
945.61502   466.59624   213.00000  16.91576             16.23867
944.93820   1093.91011  178.00000  17.71726             12.84910
947.21825   1120.48413  252.00000  19.56429             16.44121
947.47568   678.31351   185.00000  17.95210             13.52673
949.04564   263.77593   241.00000  22.61344             13.88016
949.51837   421.62857   245.00000  19.84393             15.87006
949.14634   1228.72764  246.00000  18.64389             16.87682
948.28931   1254.38994  159.00000  16.72983             12.23311
949.87578   782.77640   322.00000  27.12945             15.41926
950.48214   533.58929   112.00000  13.65437             10.52873
952.84091   321.10455   220.00000  21.01313             13.49664
954.16045   298.75746   268.00000  24.30756             14.09239
953.97768   1168.59375  224.00000  17.88665             16.11092
956.52113   719.97183   213.00000  18.12201             14.98435
952.33333   1242.19697  66.00000   9.24628              9.13792
958.25316   685.81013   237.00000  18.83858             16.35972
960.15385   133.37692   260.00000  19.62616             16.91542
961.82524   416.77670   206.00000  23.30043             11.50253
961.22624   170.44796   221.00000  17.85692             15.76054
962.50216   627.98701   231.00000  19.28677             15.32846
962.61860   1315.10698  215.00000  19.68262             14.06828
968.10849   519.16981   212.00000  17.77844             15.20284
969.95984   983.62651   249.00000  22.99852             14.01401
963.60000   441.52000   25.00000   6.77457              4.70093
975.44337   260.83373   415.00000  25.75152             22.56576
968.40415   495.94819   193.00000  17.86882             13.80986
969.20098   1347.81373  204.00000  18.24188             14.33743
970.33173   408.43269   208.00000  18.80237             14.19450
977.86058   554.54808   624.00000  31.60629             27.37961
971.80851   184.39894   188.00000  18.92452             12.72983
973.14815   1284.04762  189.00000  16.68999             14.50118
974.65426   149.65426   188.00000  18.06943             13.27492
979.40076   697.21374   262.00000  20.13495             16.60362
981.91845   234.12876   233.00000  19.96653             14.91162
982.44601   624.92488   213.00000  16.95759             16.19433
983.51073   472.46352   233.00000  19.65753             15.54933
982.83408   499.31390   223.00000  20.13417             14.34197
984.45701   995.90498   221.00000  17.50041             16.16559
985.11638   297.28017   232.00000  19.03988             15.58105
984.40161   1099.44980  249.00000  21.06507             15.19628
983.93082   196.08805   159.00000  15.64266             12.93767
988.01395   583.10233   215.00000  18.54854             14.85072
987.66946   721.45607   239.00000  20.32621             15.01726
988.07246   1315.73430  207.00000  18.05097             14.65026
989.43655   839.05584   197.00000  21.53626             11.79926
988.90367   1341.67431  218.00000  18.95250             14.71138
991.09170   867.20087   229.00000  20.14174             14.66815
996.12912   449.88736   364.00000  25.07735             18.80897
991.94855   1280.55949  311.00000  27.82534             14.48157
993.07107   1030.55330  197.00000  18.43944             13.73065
995.37828   403.03745   267.00000  22.19433             15.45970
996.61638   383.34052   232.00000  20.24339             14.70381
996.17431   1976.20183  109.00000  14.90087             10.17013
998.67254   160.34507   284.00000  21.96033             16.56176
998.79842   266.64822   253.00000  23.01752             14.70414
999.83254   573.52632   209.00000  18.38554             14.73401
998.69231   779.29231   260.00000  19.26532             17.34348
998.56444   1059.94222  225.00000  18.93346             15.17072
996.80447   1150.18994  179.00000  18.77600             12.18729
1000.29907  535.11215   214.00000  18.97786             14.49213
1004.13871  181.15806   310.00000  22.05666             18.18957
1002.36404  294.24123   228.00000  22.02975             13.25287
1001.61674  499.37445   227.00000  19.18588             15.08026
1003.12281  861.97807   228.00000  20.49151             14.26036
1005.95122  413.61382   246.00000  19.85275             15.93473
1006.83142  119.70881   261.00000  20.08092             16.58425
1009.76978  234.81295   278.00000  21.13270             17.01463
1008.73438  600.98828   256.00000  21.39543             15.54564
1009.14286  1035.52995  217.00000  22.46500             12.51420
1009.36224  793.12755   196.00000  17.53899             14.38478
1009.01304  1459.37391  230.00000  23.09670             12.78139
1012.38983  385.34746   236.00000  18.93753             16.01663
1009.81410  429.31410   156.00000  15.45842             12.88740
1012.62667  723.78333   300.00000  21.66736             17.96064
1010.46250  477.32500   160.00000  17.24014             11.91071
1012.89316  145.71795   234.00000  19.75664             15.11939
1012.97021  541.85106   235.00000  18.87442             15.89379
1011.83920  807.58291   199.00000  18.19486             14.05735
1010.94787  1151.95261  211.00000  20.06240             13.41708
1012.96407  1021.11976  167.00000  16.51161             12.95512
1014.20536  638.69643   224.00000  19.43044             14.71229
1015.22984  1377.70565  248.00000  19.82060             16.22849
1017.91827  466.97115   208.00000  17.61068             15.61476
1015.69828  964.37931   232.00000  18.95463             15.76108
1016.86939  1326.51020  245.00000  18.70379             16.80864
1016.96403  562.89928   139.00000  14.96398             12.16718
1021.65528  698.68012   322.00000  22.90411             18.22598
1020.49844  1110.42056  321.00000  21.32736             19.59454
1023.53906  771.08073   384.00000  24.00826             20.93083
1023.92881  738.97966   295.00000  21.08869             18.05396
1024.59244  981.26471   238.00000  19.76059             15.38609
1022.74537  432.04167   216.00000  19.00797             14.81749
1027.17972  570.88940   217.00000  18.75018             15.11170
1025.02167  1213.40867  323.00000  23.41540             18.02438
1024.69583  1394.94583  240.00000  19.24282             16.17158
1024.00000  1442.12963  216.00000  19.62023             14.34882
1025.49738  608.50785   191.00000  16.02404             15.20621
1027.00905  215.57466   221.00000  19.35899             14.67224
1023.41379  502.13793   29.00000   6.34106              5.82995
1027.98324  1024.54749  179.00000  20.77722             11.06500
1028.89732  1280.00446  224.00000  17.76994             16.16177
1032.21600  624.60800   250.00000  22.38546             14.43573
1032.88330  1075.39588  437.00000  27.27613             21.33092
1029.57459  1310.90608  181.00000  17.61025             13.14737
1031.09821  1419.71875  224.00000  23.64678             12.43480
1031.27136  1472.16583  199.00000  17.75229             14.37271
1033.08287  640.93370   181.00000  18.93555             12.69378
1034.26923  896.96703   182.00000  15.67746             14.79481
1036.79752  312.54545   242.00000  19.35671             15.95035
1035.45304  651.90608   181.00000  19.02783             12.48193
1037.91845  1039.18455  233.00000  17.76815             16.89560
1040.00472  183.44811   212.00000  17.72075             15.33670
1036.42647  502.05882   68.00000   10.52259             8.25785
1040.75688  1412.55963  218.00000  20.55352             13.64826
1042.33333  477.03268   153.00000  17.18518             11.75230
1041.95897  578.49744   195.00000  20.04288             12.50720
1048.50763  986.68321   262.00000  23.18181             14.61219
1044.00543  534.63587   184.00000  16.75718             14.25349
1046.88115  457.67623   244.00000  19.21967             16.29983
1046.13248  553.36325   234.00000  20.35204             14.71614
1047.91630  687.08370   227.00000  20.81430             13.95852
1046.74913  1218.15679  287.00000  22.39910             16.51149
1044.32955  2010.63636  88.00000   11.61267             9.98280
1049.73262  588.92513   187.00000  17.53473             13.82570
1047.76961  652.37745   204.00000  18.88996             14.11581
1048.27322  714.28415   183.00000  16.28112             14.32723
1052.01714  1274.22857  175.00000  16.47961             13.56778
1052.29508  233.86885   183.00000  16.15795             14.47612
1057.53419  1371.46581  234.00000  23.22554             13.12491
1052.25714  477.60714   140.00000  16.03216             11.58877
1054.24339  1044.81481  189.00000  17.54297             13.76432
1057.17300  740.05907   237.00000  23.59272             12.89803
1059.40000  623.08571   210.00000  18.48493             14.55928
1063.01961  1176.46779  357.00000  24.70026             19.70633
1057.44624  1445.54301  186.00000  17.62183             13.54950
1059.22008  1242.28958  259.00000  20.19748             16.47601
1058.13621  1391.15947  301.00000  25.54873             15.06951
1058.16327  182.98469   196.00000  17.87312             14.07411
1059.54011  321.09626   187.00000  17.21420             14.01413
1060.38863  970.62559   211.00000  17.85451             15.04646
1059.56647  1121.55491  173.00000  17.12887             12.88399
1058.93143  1148.13143  175.00000  17.13840             13.04949
1061.47107  1486.25620  242.00000  20.24475             15.23248
1064.25514  249.72840   243.00000  19.16053             16.36725
1064.72112  791.78884   251.00000  21.66564             15.87717
1062.69355  1345.51613  248.00000  23.09425             14.02718
1064.72112  479.78088   251.00000  19.88319             16.35758
1065.58088  509.82721   272.00000  20.25704             17.24766
1062.14286  1160.21429  112.00000  14.14300             10.31227
1072.38832  211.40893   582.00000  32.46788             23.67809
1068.10714  311.30952   252.00000  22.08123             14.80148
1066.47442  1429.08837  215.00000  17.51387             15.65957
1069.37050  596.89209   278.00000  21.97749             18.50109
1069.35096  616.86058   208.00000  27.09290             10.72025
1068.79263  1326.40553  217.00000  17.29090             16.00721
1072.84783  1107.21196  184.00000  19.59447             12.08350
1073.18140  686.52093   215.00000  18.95315             14.52385
1074.72549  713.72549   255.00000  19.93250             16.48201
1075.62195  1044.10569  246.00000  20.70277             15.64089
1074.55789  1153.55789  190.00000  19.07486             13.17415
1073.45930  828.30233   172.00000  17.41480             13.03586
1078.19617  663.13397   209.00000  20.12539             13.33983
1080.55758  1493.16970  330.00000  28.05049             16.86960
1080.65779  526.12928   263.00000  24.37101             13.81643
1081.16667  1090.60606  198.00000  19.33210             13.11907
1079.09605  1387.07910  177.00000  16.96787             13.30144
1080.13068  1306.04545  176.00000  15.96281             14.14441
1082.96667  506.47083   240.00000  21.92262             14.23261
1081.64535  577.48837   172.00000  15.24309             14.38526
1085.96701  817.04315   394.00000  23.49517             22.14788
1080.87151  1402.35196  179.00000  17.41777             13.45323
1084.43651  1365.53571  252.00000  20.87742             15.55280
1084.63415  556.98374   123.00000  15.10152             10.41153
1082.62264  626.62264   159.00000  16.80674             12.06984
1085.04790  1318.90419  167.00000  16.87286             12.62863
1084.61585  339.53659   164.00000  15.47892             13.49873
1085.58333  493.75595   168.00000  16.72529             12.82336
1081.23684  849.55263   38.00000   7.66123              6.32002
1085.23889  991.48333   180.00000  17.02613             13.46741
1084.80328  1285.41803  122.00000  16.12948             10.05714
1086.77551  958.23980   196.00000  17.55747             14.24454
1089.95074  1117.15271  203.00000  18.61153             14.01748
1088.14024  1213.14024  164.00000  15.19105             13.81472
1088.29012  1295.42593  162.00000  15.12557             13.86549
1091.06829  1241.76098  205.00000  20.83689             12.64124
1092.87365  393.57040   277.00000  19.40567             18.27020
1097.03795  946.94420   448.00000  29.21189             20.80401
1094.09375  1227.00000  160.00000  19.84907             10.39105
1096.59740  1054.98701  231.00000  21.73685             13.77352
1096.07719  21.69474    285.00000  21.94295             16.73764
1097.93103  1033.78325  203.00000  19.05748             13.92323
1097.65801  1104.55411  231.00000  18.73935             15.75381
1097.76650  1178.73604  197.00000  17.80715             14.15019
1096.51500  1449.80500  200.00000  17.68684             14.44727
1104.56423  692.08312   397.00000  25.35110             20.59998
1099.13706  970.82741   197.00000  19.12382             13.28332
1102.32500  992.43750   320.00000  21.75754             19.22126
1098.70796  1305.46018  226.00000  20.28035             14.24279
1097.62329  234.65068   146.00000  15.01444             12.43233
1101.15122  220.19512   205.00000  17.71659             14.83292
1102.45130  718.25325   308.00000  22.55009             17.59541
1098.21951  919.92683   41.00000   8.53881              6.15158
1106.65480  1269.59075  281.00000  23.85451             15.39373
1106.38554  1416.91566  249.00000  22.78010             13.94499
1108.05952  634.47619   252.00000  23.53845             14.07584
1107.48659  903.52874   261.00000  20.25063             16.45461
1105.53153  1380.34234  222.00000  20.45455             13.89827
1107.55172  613.03448   261.00000  19.06486             17.46222
1107.71642  1224.91045  201.00000  17.21878             15.02664
1108.05556  346.62821   234.00000  21.72098             13.85355
1104.03390  887.72881   59.00000   9.49782              7.87959
1110.40439  1078.88715  319.00000  23.35397             17.48114
1107.19403  1331.06965  201.00000  17.75794             14.51558
1107.51531  1464.98469  196.00000  16.74885             14.97069
1110.39070  1395.89302  215.00000  21.13449             13.30190
1109.91165  667.71084   249.00000  20.80822             15.27883
1119.14527  1150.74493  592.00000  33.68204             22.65382
1112.48171  482.02439   164.00000  16.76374             12.47186
1117.30389  82.83039    283.00000  21.29306             17.04090
1116.96484  557.92188   256.00000  20.17554             16.42079
1119.95732  1301.16463  164.00000  21.95705             10.05161
1117.39512  1362.77561  205.00000  18.46301             14.28658
1120.03814  537.72881   236.00000  17.84132             16.92293
1121.09129  584.98340   241.00000  18.52865             16.68414
1119.05882  846.16263   289.00000  22.20927             16.64445
1119.98413  1289.20635  189.00000  17.71689             13.60392
1122.29032  1312.00000  217.00000  20.03833             13.93307
1122.73128  1330.07930  227.00000  21.43983             13.93671
1125.36715  1171.44928  207.00000  21.70476             12.28487
1124.97736  122.09057   265.00000  21.58550             15.69264
1124.28814  452.53390   236.00000  18.76077             16.02463
1124.09140  676.14516   186.00000  16.83969             14.19364
1127.94502  386.31271   291.00000  20.36413             18.59291
1126.68473  892.23645   203.00000  20.10857             12.89663
1131.29844  1116.46102  449.00000  32.37804             23.87989
1127.94760  655.05240   229.00000  19.04313             15.56717
1130.97586  956.83793   290.00000  23.01140             16.49005
1127.46875  975.03516   256.00000  23.69811             13.96609
1128.33992  626.66798   253.00000  21.31823             15.19438
1130.18519  472.72428   243.00000  21.06891             14.79290
1130.87766  922.21277   188.00000  17.75012             13.78757
1133.09025  1091.95668  277.00000  20.28477             17.86692
1132.07336  1212.01544  259.00000  22.22395             15.12771
1131.11111  1421.67407  270.00000  23.40106             14.85749
1131.02083  910.96528   144.00000  15.95665             11.55774
1131.21935  1320.60000  155.00000  15.50635             12.94919
1133.85799  1449.40237  338.00000  23.34314             19.53955
1134.15564  1133.40467  257.00000  23.74615             13.96019
1134.25758  1875.20202  198.00000  18.59398             13.63092
1139.75000  1242.73355  304.00000  22.15850             18.36965
1135.18987  217.27848   79.00000   11.04456             9.15396
1141.11554  424.83665   251.00000  21.27891             15.55717
1140.12554  875.96970   231.00000  19.53217             15.13268
1143.60526  1103.33333  228.00000  23.84117             12.29298
1140.92754  505.07729   207.00000  16.43357             16.16041
1142.66534  153.50996   251.00000  20.86800             15.52096
1142.46541  1149.22013  159.00000  17.27509             11.74667
1142.85714  668.76000   175.00000  16.52152             13.58938
1144.46746  951.60355   169.00000  16.75965             12.91447
1146.67136  1278.26761  213.00000  18.12791             14.97158
1147.57399  1390.16592  223.00000  21.06366             13.77756
1144.77512  1940.16268  209.00000  17.52586             15.26212
1145.59155  927.59155   142.00000  15.12851             11.97830
1147.04508  996.00000   244.00000  22.15594             14.65337
1144.67052  1203.47977  173.00000  17.42341             12.71836
1146.58051  308.35593   236.00000  24.58234             12.32958
1148.00000  1051.52217  203.00000  17.75726             14.72246
1150.88851  1337.86824  296.00000  23.31010             16.28298
1150.80000  892.54894   235.00000  20.39051             14.73077
1151.83137  688.48627   255.00000  20.14317             16.24297
1150.40000  1866.41579  190.00000  17.48694             13.85172
1152.95238  492.86147   231.00000  18.51931             15.92295
1156.46250  655.47083   240.00000  18.44247             16.67251
1153.69799  1088.16107  149.00000  16.75083             11.41080
1157.59649  1159.69474  285.00000  23.10527             16.12194
1152.59259  963.07407   27.00000   6.42150              5.26541
1160.32932  1301.25703  249.00000  20.80476             15.26947
1161.49500  302.46000   200.00000  20.14802             12.69138
1161.05854  945.31707   205.00000  19.24230             13.65685
1162.82313  1031.48980  147.00000  17.53622             10.95597
1162.38760  1040.80620  129.00000  18.60253             8.90058
1163.10435  1417.99130  230.00000  21.42020             13.89619
1167.30233  743.17054   258.00000  24.94147             13.35021
1164.95833  1199.61667  240.00000  23.29651             13.41493
1162.71605  521.44444   81.00000   12.39228             8.53782
1166.61803  1083.05150  233.00000  18.33329             16.43150
1168.78629  320.91935   248.00000  18.98134             16.82461
1172.08714  675.87552   241.00000  21.93131             14.14245
1168.93367  1330.32653  196.00000  16.71360             15.07876
1170.44918  1058.47541  305.00000  22.90739             17.64719
1173.21074  519.92149   242.00000  20.02111             15.64690
1176.35385  238.42308   260.00000  24.71364             13.45532
1177.22348  484.24621   264.00000  20.60577             16.45002
1174.42929  942.32828   198.00000  17.16975             14.91801
1180.01742  903.55401   287.00000  21.89575             16.80909
1177.26374  1110.54396  182.00000  16.13957             14.49961
1176.57407  688.46296   108.00000  14.89154             9.24075
1177.79327  1207.59615  208.00000  18.65467             14.40146
1181.84000  1312.85600  250.00000  22.57126             14.55050
1181.46429  1184.58333  252.00000  20.16329             15.94562
1180.36264  1409.01832  273.00000  24.31576             14.42362
1179.36517  538.24719   178.00000  16.09494             14.09595
1181.31034  922.72845   232.00000  19.62240             15.16913
1182.14500  1260.28000  200.00000  18.45120             13.91842
1181.91228  970.32018   228.00000  19.92905             15.27810
1182.10674  1383.76404  178.00000  15.76875             14.84237
1183.62434  877.82011   189.00000  16.84532             14.55437
1184.77717  956.64674   184.00000  17.46924             13.87647
1181.77889  1298.07035  199.00000  19.60397             12.93621
1185.04145  820.44560   193.00000  17.16327             14.47099
1186.98446  1248.92746  193.00000  18.63734             13.37548
1182.58621  755.98276   58.00000   9.75263              7.54324
1186.95000  1051.08750  160.00000  16.43899             12.43371
1189.07383  892.63758   149.00000  16.72737             11.62701
1188.44395  1105.53812  223.00000  23.76736             12.27299
1189.14350  1134.71300  223.00000  18.98232             15.13103
1192.93048  940.08021   187.00000  18.32770             13.04212
1191.36806  548.59722   144.00000  16.69427             11.21429
1190.92568  1885.15541  148.00000  15.92977             11.96550
1194.50000  557.83562   146.00000  17.63738             10.81842
1194.82819  854.21586   227.00000  19.43083             14.94337
1193.50820  1870.81148  122.00000  14.49510             10.76170
1196.45038  235.49237   262.00000  22.75042             14.83331
1195.25352  500.97653   213.00000  17.87104             15.22421
1196.48619  1278.53039  181.00000  18.10504             12.83003
1197.50829  535.39779   181.00000  16.23403             14.54506
1194.20000  916.38462   65.00000   9.36939              8.86349
1196.71429  871.60204   98.00000   13.73348             9.51263
1202.55556  950.98084   261.00000  22.72589             14.76559
1198.35023  819.54839   217.00000  18.85284             14.80468
1199.84874  1233.07563  238.00000  22.79459             13.35298
1202.16738  695.45923   233.00000  21.35873             14.05566
1201.17470  1140.77108  166.00000  15.93303             13.43766
1199.20755  796.28302   53.00000   8.41336              8.01880
1202.79191  1089.07514  173.00000  16.46113             13.42479
1205.51034  545.13793   145.00000  15.33226             12.18288
1203.73446  912.44633   177.00000  17.82019             12.76741
1205.28676  563.81618   136.00000  13.57075             12.92884
1205.30233  744.87209   172.00000  17.14062             12.87184
1206.79399  867.53219   233.00000  20.94856             14.31823
1209.24206  976.94444   252.00000  20.50925             15.79339
1207.08434  998.21084   166.00000  16.27748             13.01535
1209.62651  1018.91968  249.00000  18.89772             16.96473
1208.56069  1114.04046  173.00000  16.08081             14.00676
1206.47887  786.80282   71.00000   10.37552             8.71786
1211.19556  1178.51556  225.00000  17.78006             16.13279
1208.32323  1314.05051  99.00000   12.40140             10.19248
1207.67241  902.15517   58.00000   9.80344              7.53822
1215.11450  712.62595   262.00000  20.67081             16.19944
1213.43421  555.66447   152.00000  15.22359             12.79610
1212.69186  1302.59884  172.00000  20.30189             10.96801
1214.79762  1148.36905  168.00000  14.95191             14.49749
1217.55417  1102.08333  240.00000  18.93833             16.62072
1220.73125  1384.60000  320.00000  24.56725             17.60780
1215.51786  614.60714   56.00000   8.75000              8.13055
1218.78857  743.77714   175.00000  16.51239             13.56054
1221.00000  1525.08416  202.00000  18.51391             13.94804
1220.11707  906.67805   205.00000  19.09924             13.68690
1224.13780  1049.46063  254.00000  20.72302             15.76174
1224.37278  858.29586   169.00000  15.54716             13.92326
1228.27273  218.07636   275.00000  20.71523             17.02606
1226.18062  1867.16300  227.00000  19.51543             14.81808
1226.96154  1428.43407  182.00000  19.18333             12.42272
1228.35233  1257.98446  193.00000  17.36724             14.14269
1231.13281  1215.85938  128.00000  13.27867             12.31679
1233.29583  1956.12500  240.00000  19.49900             15.75031
1229.66154  768.90769   65.00000   11.11694             7.45745
1232.83036  1888.43304  224.00000  18.67171             15.38480
1237.02230  711.04089   269.00000  20.90291             16.41561
1235.20197  1284.37931  203.00000  19.86351             13.05553
1236.39423  819.00000   208.00000  19.14160             14.01774
1236.63584  1434.44509  173.00000  16.73113             13.61412
1238.77184  1515.81068  206.00000  18.81734             14.13102
1242.47475  1267.46970  198.00000  18.41824             13.76484
1241.24359  1342.98718  78.00000   11.26096             9.29477
1245.33212  1247.74088  274.00000  21.41192             16.65463
1247.49793  1190.70954  241.00000  19.45802             15.87302
1244.59925  1358.97753  267.00000  26.74631             12.82864
1247.67811  1479.27468  233.00000  19.07696             15.56389
1246.95939  1497.51777  197.00000  17.82201             14.06617
1249.85674  774.65730   356.00000  25.95334             17.81406
1252.26241  1228.85461  282.00000  22.82799             15.84129
1254.38889  1293.69697  198.00000  20.62086             12.68349
1254.28571  1105.11429  175.00000  16.78648             13.35714
1259.12074  1410.86687  323.00000  21.05462             19.75517
1258.61304  1047.50000  230.00000  17.55740             16.84464
1259.86312  896.06464   263.00000  22.36371             14.98287
1259.24138  993.38424   203.00000  16.53146             15.66105
1260.05150  1323.14592  233.00000  18.39698             16.23806
1259.33742  701.39264   163.00000  16.26895             13.02720
1265.99606  1070.56693  254.00000  20.23786             16.63204
1263.83784  1514.54595  185.00000  17.55148             13.59527
1263.68980  1881.02449  245.00000  18.56096             16.89145
1267.13932  1950.75851  323.00000  28.53399             15.22824
1264.78238  1021.13990  193.00000  17.26210             14.28561
1264.36073  1380.63927  219.00000  20.57698             13.66942
1266.35981  1563.90187  214.00000  21.69194             12.60991
1266.03448  1906.68966  145.00000  15.12051             12.39311
1275.28214  1236.35000  280.00000  30.99806             12.07835
1271.21827  1193.87310  197.00000  16.88943             14.87755
1274.58937  1972.29469  207.00000  18.59334             14.21020
1275.59140  1227.66667  93.00000   14.62050             8.09265
1277.51046  1305.97071  239.00000  20.34770             15.06907
1277.07692  732.60440   182.00000  16.84507             13.90932
1276.50254  1034.63452  197.00000  19.06834             13.15304
1280.14388  1111.66187  139.00000  18.84576             9.45571
1282.50678  1013.01355  369.00000  25.99292             18.20260
1280.31556  1497.72444  225.00000  20.00698             14.34702
1279.01198  1532.47305  167.00000  16.65284             12.76638
1281.64220  2030.87156  109.00000  16.47833             8.81544
1281.41667  688.33333   168.00000  16.45205             13.07900
1286.76642  723.91241   137.00000  14.12947             12.45390
1288.45062  977.78395   162.00000  16.80252             12.28873
1288.68715  989.82682   179.00000  16.13033             14.29853
1291.24348  1122.57826  230.00000  22.26315             13.30189
1293.09772  760.73941   307.00000  23.93716             16.50983
1292.08696  744.33540   161.00000  15.61656             13.22771
1295.23127  936.73616   307.00000  32.58928             12.08421
1291.75510  1503.79592  147.00000  17.31496             11.10287
1296.00000  790.61475   244.00000  21.42932             14.92000
1298.39583  1351.35764  288.00000  20.80106             17.73685
1295.03738  1964.08411  107.00000  13.68439             10.08210
1301.93035  1132.47761  201.00000  19.16429             13.42856
1299.92308  1942.05325  169.00000  16.16168             13.55103
1305.19485  1182.19853  272.00000  21.76881             15.97052
1310.53392  1442.69912  339.00000  26.02534             16.66605
1312.38014  785.96575   292.00000  22.52535             16.72759
1308.74375  1889.05625  160.00000  15.55419             13.25013
1312.14847  428.43231   229.00000  19.50367             14.98710
1313.84211  825.02256   266.00000  21.11520             16.23317
1309.16923  2026.75385  65.00000   10.37840             9.03495
1313.96703  1081.21612  273.00000  21.40202             17.07992
1314.43030  1317.52121  165.00000  16.81973             12.50333
1317.80513  1465.85641  195.00000  16.16678             15.37015
1315.98333  1896.53333  60.00000   9.82603              8.09692
1324.35135  1374.25483  259.00000  21.80278             15.23113
1322.86435  1411.56467  317.00000  24.21222             16.86072
1321.03352  1507.22346  179.00000  15.73394             14.57730
1323.72996  2011.94937  237.00000  20.12279             15.07927
1322.58333  1886.00000  108.00000  12.27838             11.57666
1328.91304  1253.57312  253.00000  23.00799             14.18869
1331.80000  785.48814   295.00000  24.39634             15.56224
1333.82828  867.33333   198.00000  17.08138             15.12096
1334.45283  1487.89151  212.00000  21.68134             12.65051
1336.29289  1314.92469  239.00000  19.76554             15.45172
1335.42453  878.22642   106.00000  13.66876             9.98626
1333.81356  814.11864   59.00000   10.36397             7.30984
1340.94737  1005.66667  228.00000  19.35886             15.06856
1341.38614  1131.36634  202.00000  18.31686             14.03530
1343.05837  763.97665   257.00000  19.85468             16.55085
1349.29907  1153.97196  214.00000  18.59620             14.68260
1352.24454  366.85153   229.00000  20.48060             14.43868
1353.00000  863.35766   137.00000  13.67730             12.90369
1358.80597  1434.85075  335.00000  30.57974             14.40702
1358.26020  1375.93367  196.00000  16.70276             15.01655
1363.65297  993.11872   219.00000  22.19094             12.66729
1365.17514  907.94633   354.00000  24.88309             18.42380
1365.80471  939.16498   297.00000  26.29375             14.71286
1363.40437  804.16940   183.00000  15.97064             14.59564
1365.31206  1816.50000  282.00000  23.02879             15.79309
1366.32727  1457.20000  275.00000  21.57232             16.72205
1366.05923  1508.09756  287.00000  23.42445             15.72741
1373.22711  1101.73260  273.00000  19.19588             18.18130
1379.11640  822.28042   378.00000  29.10056             16.89118
1376.32319  349.34601   263.00000  26.66394             12.65523
1381.93671  319.11392   237.00000  18.98727             15.92773
1383.47660  1438.59149  235.00000  22.93869             13.61122
1384.76829  1458.06707  164.00000  15.60776             13.42198
1390.38991  1076.50000  218.00000  19.74875             14.09907
1389.96694  1426.23140  121.00000  14.24082             10.89518
1396.98857  1158.39143  350.00000  26.46993             16.88746
1392.73438  1176.70833  192.00000  17.63296             13.90463
1392.58294  1847.28910  211.00000  17.79964             15.17419
1399.65678  1405.91949  236.00000  18.38738             16.46312
1401.87963  997.80864   324.00000  22.81437             18.40344
1402.63125  1428.05625  160.00000  15.66396             13.22928
1403.19580  1749.40210  286.00000  24.20833             15.38007
1409.07692  1127.69780  182.00000  17.27212             13.57387
1411.12000  842.68571   175.00000  16.48361             13.58444
1415.49653  1630.25347  288.00000  21.63231             17.24863
1411.55952  1848.74405  168.00000  15.60896             13.72930
1414.49650  276.59790   286.00000  25.93121             14.32218
1417.03150  1053.44094  254.00000  19.85482             16.30847
1415.16961  1671.92580  283.00000  20.91892             17.64227
1416.49123  302.27193   228.00000  22.64823             12.99580
1420.81604  1139.52830  212.00000  24.10866             11.31168
1423.12057  794.46809   282.00000  20.96535             17.18175
1420.44175  1691.48544  206.00000  18.76488             14.00334
1421.85870  1117.03261  184.00000  16.53627             14.25689
1422.31061  835.25000   132.00000  15.44793             11.13143
1425.63259  1243.22684  313.00000  20.50452             19.50555
1424.25561  821.02242   223.00000  21.17449             13.50055
1428.21429  1459.50000  196.00000  18.08715             13.85781
1436.25346  764.55760   217.00000  18.59438             14.87110
1442.21242  1147.36601  306.00000  21.81134             17.92034
1442.11585  1103.60976  164.00000  15.24797             13.71021
1444.96821  1317.52312  346.00000  24.43750             18.82650
1443.83420  1875.51813  193.00000  18.70256             13.41128
1445.53394  1080.98190  221.00000  22.34602             13.21379
1442.23448  1675.14483  145.00000  18.29819             10.18258
1445.57075  1720.16038  212.00000  18.62276             14.57133
1446.45982  1839.86607  224.00000  18.28939             15.69485
1442.78873  1967.46479  71.00000   11.03498             8.31947
1446.88889  1210.77193  171.00000  15.88647             13.69914
1450.97973  621.47297   296.00000  25.44509             14.96624
1446.88189  1232.76378  127.00000  14.99497             10.90201
1449.69712  1735.63462  208.00000  17.57938             15.15738
1453.74319  1173.76654  257.00000  20.78268             16.19978
1452.84167  1052.59167  240.00000  18.43235             16.64471
1451.94118  1087.36471  85.00000   14.24461             7.69349
1453.31818  1483.30909  220.00000  19.18522             14.86352
1450.56989  1646.15054  93.00000   15.91475             7.69866
1456.87387  930.94595   333.00000  21.63648             19.81127
1455.17045  1281.40152  264.00000  20.67373             16.42728
1451.99107  1664.42857  112.00000  14.65697             9.80257
1455.51799  1240.71223  139.00000  14.81074             12.09802
1458.61111  835.58333   288.00000  21.75419             17.38780
1459.98160  948.17178   163.00000  14.67031             14.28750
1458.65854  1645.54878  82.00000   12.49062             8.46414
1462.14634  1303.12195  41.00000   7.95490              6.53265
1464.32075  1685.26415  106.00000  13.33446             10.26237
1469.54962  627.14504   262.00000  24.00393             13.97546
1465.75214  1632.11966  117.00000  13.27068             11.27936
1472.09091  477.20727   275.00000  20.92062             16.81111
1477.26877  1240.08300  253.00000  20.63711             16.15457
1472.58182  1824.61818  165.00000  15.45313             13.73153
1475.32189  1335.63090  233.00000  18.23680             16.34795
1474.69154  1773.55721  201.00000  18.43314             13.93081
1477.46605  427.67593   324.00000  22.55733             18.44541
1475.89286  1807.77232  224.00000  18.74889             15.25387
1476.27684  1287.11864  177.00000  16.45771             13.72398
1478.06286  897.16000   175.00000  17.47527             12.79171
1482.60435  845.70435   230.00000  20.38832             14.47862
1480.36100  667.14108   241.00000  21.45866             14.30179
1484.72327  914.57547   318.00000  24.13020             16.83182
1482.42788  1848.28846  208.00000  20.16410             13.19653
1484.18504  864.60630   254.00000  22.58210             14.52548
1485.77333  1371.71200  375.00000  27.55818             17.49904
1485.65143  1065.52571  175.00000  16.03290             13.92828
1488.65625  1008.70536  224.00000  18.07038             15.79680
1489.36036  1498.95946  222.00000  18.86723             14.97311
1488.66848  1322.82609  184.00000  17.25931             13.65268
1492.35968  356.75494   253.00000  24.21240             13.34765
1493.75691  893.09392   181.00000  15.66162             14.73420
1498.10753  696.21505   279.00000  23.85675             14.96933
1497.75000  939.07979   188.00000  18.21671             13.18875
1496.81988  1219.19876  161.00000  15.14869             13.61127
1501.00459  975.07798   218.00000  17.97820             15.49870
1507.46708  1229.68966  319.00000  24.46262             17.01879
1507.48780  615.65854   410.00000  26.43954             19.85066
1507.75652  1664.60870  115.00000  16.64372             9.19388
1512.37318  1401.72886  343.00000  26.33716             16.70178
1511.89868  1278.13656  227.00000  21.40340             14.00330
1513.65385  1015.30385  260.00000  21.13627             15.83819
1515.79424  897.26337   243.00000  22.26329             14.11793
1517.72527  706.23626   182.00000  16.30731             14.42272
1520.72059  988.83333   204.00000  17.94040             14.51360
1522.57806  1329.83544  237.00000  18.04793             16.82583
1522.57754  1147.50802  187.00000  15.98763             14.97517
1528.37224  283.44164   317.00000  23.64104             17.31660
1525.64948  1416.45876  194.00000  16.50289             15.11508
1530.34564  720.16779   298.00000  24.53784             15.65534
1529.48148  1815.07407  162.00000  17.05055             12.10654
1530.93631  1003.15287  157.00000  14.36969             14.00830
1529.46729  1268.02804  107.00000  12.34520             11.14291
1533.81356  1365.60169  236.00000  21.40040             14.17850
1537.51685  1055.91573  178.00000  16.38277             13.88327
1538.14674  905.13043   184.00000  16.98562             13.85649
1539.22553  1157.07660  235.00000  19.35262             15.51795
1540.60096  1275.94231  208.00000  17.83732             14.98968
1542.51643  1288.65728  213.00000  22.16376             12.58853
1544.89420  946.00000   293.00000  22.83041             16.39568
1541.46701  1190.35025  197.00000  17.74515             14.22882
1547.14613  992.50430   349.00000  23.38980             19.36238
1547.32950  1303.31034  261.00000  20.01464             16.61457
1549.70370  1684.88889  81.00000   13.00781             8.24679
1561.42404  1418.00227  441.00000  29.25440             19.64045
1555.95455  879.99351   154.00000  16.53969             11.93335
1556.69106  1473.84146  246.00000  18.73562             16.77465
1554.13761  1872.07339  109.00000  12.67468             10.98414
1560.12044  896.00365   274.00000  20.72505             17.00556
1562.01068  216.48754   281.00000  28.69311             12.59512
1563.81944  982.23148   216.00000  17.89719             15.47807
1565.96970  1436.90909  33.00000   7.27291              5.85070
1576.26740  1190.19414  273.00000  19.72524             17.92034
1572.72727  998.77273   44.00000   8.33382              6.75440
1580.55556  1014.58120  234.00000  20.59572             14.49562
1580.41518  1381.16071  224.00000  18.06721             15.86701
1588.70400  1133.40400  250.00000  25.68293             13.42913
1587.04040  1031.45455  198.00000  18.97158             13.57581
1587.63200  1534.01600  125.00000  14.98208             10.68188
1589.06780  1522.70621  177.00000  17.65307             13.05873
1588.31405  1621.76033  121.00000  16.46832             9.53202
1593.27468  1201.32189  233.00000  20.81670             14.27345
1591.23239  1409.93310  284.00000  23.08392             15.98942
1590.62896  1488.13122  221.00000  19.09475             14.91479
1592.69079  1267.92434  304.00000  23.92190             16.25019
1590.74752  1608.75743  202.00000  18.18498             14.23490
1592.86286  953.07429   175.00000  16.61212             13.45605
1599.03941  1020.10837  203.00000  19.48279             13.39183
1598.78431  1060.79412  204.00000  17.23646             15.20034
1600.26180  1298.00429  233.00000  19.82598             15.07168
1599.96491  1226.05263  57.00000   9.97443              7.27102
1602.64904  1239.72115  208.00000  19.68676             13.51016
1610.46784  1539.64327  171.00000  17.45587             12.47502
1613.90576  946.37173   191.00000  20.71690             11.98063
1617.23636  1096.08000  275.00000  23.24624             15.19419
1617.56299  1631.74803  508.00000  41.65589             17.10708
1619.26316  853.74494   247.00000  23.30544             13.77681
1615.77184  1055.54854  206.00000  19.03320             14.03231
1616.11875  1236.81250  160.00000  14.99458             13.63358
1619.85124  1452.44628  242.00000  20.86297             14.97786
1620.78421  1026.14737  190.00000  16.79555             14.60267
1622.58730  1121.09524  189.00000  17.54801             14.00420
1619.86420  1658.38272  81.00000   11.61172             8.91169
1624.30619  1258.92834  307.00000  23.02289             17.30393
1627.16393  486.86885   183.00000  17.25003             13.57770
1633.49595  456.65789   494.00000  35.02635             18.90941
1634.31646  538.28270   237.00000  18.23640             16.56225
1636.89815  1003.83642  324.00000  21.34115             19.50906
1638.35985  1321.91288  264.00000  22.17841             15.44445
1636.02885  867.12981   208.00000  17.66200             15.08443
1637.20690  1663.50739  203.00000  19.13834             13.54262
1640.02869  1191.44262  244.00000  22.26484             14.04260
1640.49112  481.81065   169.00000  16.15245             13.38516
1644.73413  661.53571   252.00000  21.93311             14.75978
1643.87000  1267.37000  200.00000  17.82542             14.37058
1646.22222  853.08889   180.00000  18.70714             12.29515
1646.30769  1648.13248  234.00000  19.81047             15.22276
1647.04082  563.01224   245.00000  17.84922             17.53099
1651.97308  1537.45769  260.00000  23.93513             13.94908
1648.51479  605.05325   169.00000  16.46377             13.28329
1650.29577  689.20775   284.00000  21.66179             16.75172
1649.25926  1048.83704  135.00000  14.36657             12.00915
1653.67547  488.60000   265.00000  20.21982             16.86038
1658.11111  1326.71556  225.00000  17.93648             16.15892
1658.64088  1052.63536  181.00000  19.84799             12.39894
1657.74138  1180.89655  174.00000  15.75235             14.09008
1660.48125  332.05000   160.00000  16.06419             13.18697
1661.97951  1590.63934  244.00000  20.55011             15.16462
1660.98400  603.76800   250.00000  20.71066             15.91262
1663.48261  1068.11739  230.00000  19.09077             15.49684
1660.91753  1293.10309  194.00000  17.01091             14.52476
1663.58216  436.11737   213.00000  19.16113             14.22610
1661.69714  556.74857   175.00000  17.08307             13.08951
1664.04787  456.12234   188.00000  16.39072             14.75488
1671.99275  1001.20652  276.00000  27.39731             13.11521
1663.64407  744.74576   59.00000   9.40454              8.07708
1674.26160  548.57384   237.00000  22.07123             13.76350
1675.68020  758.51777   197.00000  21.11841             12.49023
1679.80000  1307.49412  255.00000  23.34794             14.39518
1675.40909  788.90909   88.00000   12.37453             9.18829
1680.57778  1667.97778  225.00000  18.70993             15.34907
1681.13439  1400.28063  253.00000  18.84532             17.16833
1682.67213  386.42213   244.00000  19.91725             15.60930
1682.82203  904.67797   236.00000  19.57492             15.46605
1682.06230  1466.29836  305.00000  27.22277             14.39279
1682.97115  403.64423   208.00000  16.97162             15.74566
1681.92958  601.78404   213.00000  19.03684             14.35052
1685.47244  1146.58268  254.00000  23.89170             14.03575
1683.31553  887.12136   206.00000  17.18268             15.39937
1684.81865  326.12953   193.00000  16.98710             14.53855
1687.74937  691.82532   395.00000  27.44958             18.48282
1687.33184  817.25561   223.00000  19.17803             14.84559
1686.62130  1062.90533  169.00000  16.14709             13.36357
1692.18443  753.13115   244.00000  19.81278             15.93053
1692.35135  1528.83333  222.00000  19.43633             14.73332
1697.61149  290.94483   435.00000  30.43434             18.47283
1692.31980  789.62437   197.00000  19.36435             12.99789
1691.84362  1373.02469  243.00000  20.61639             15.18214
1698.94526  1017.47810  274.00000  23.69469             15.05594
1695.82659  364.39306   173.00000  18.28480             12.09246
1698.37349  618.57430   249.00000  19.81048             16.04724
1704.56190  258.67937   315.00000  24.89631             16.44358
1701.11726  1488.73290  307.00000  25.10411             15.60356
1701.62304  899.19895   191.00000  18.44913             13.23212
1704.92776  1375.63498  263.00000  25.28867             13.39321
1704.40206  1420.04124  194.00000  17.64024             14.15460
1706.28272  1611.86387  191.00000  17.02215             14.37934
1715.36131  1073.36131  274.00000  32.25333             11.31813
1714.72449  368.95918   294.00000  22.86943             16.38627
1711.25806  1045.44624  186.00000  16.63214             14.26560
1719.09917  699.66942   242.00000  18.55464             16.66395
1725.62092  723.51307   306.00000  21.17964             18.59571
1725.80175  1029.60058  343.00000  24.01895             19.25407
1729.75748  915.33223   301.00000  23.42020             16.59894
1726.53975  1660.24268  239.00000  19.84836             15.40430
1729.62051  1269.02051  195.00000  17.34352             14.39049
1731.90062  1293.06522  322.00000  21.90027             18.76704
1733.51935  314.53871   310.00000  26.52696             14.97115
1735.37143  375.25714   175.00000  15.89450             14.09548
1738.44601  1722.81221  213.00000  19.90667             13.64803
1747.83764  927.70480   271.00000  24.76765             14.24542
1743.63580  1014.24074  162.00000  15.10852             13.69840
1745.34956  1578.54867  226.00000  21.30661             13.52808
1746.63793  348.99569   232.00000  17.75389             16.75827
1748.09124  692.58394   274.00000  19.18198             18.33377
1746.42763  865.15132   152.00000  14.34754             13.56905
1747.98684  986.09649   228.00000  18.90388             15.68216
1748.84112  898.64019   214.00000  21.29267             12.86585
1751.30488  1039.40244  164.00000  15.11188             13.86842
1752.26255  1104.81853  259.00000  21.32929             15.71227
1755.98868  1074.82264  265.00000  21.49509             16.02472
1753.13889  421.45370   108.00000  13.61636             10.34373
1757.43147  711.83249   394.00000  23.82048             21.13433
1755.56557  438.97951   244.00000  20.57953             15.16297
1757.50862  1504.11207  232.00000  18.25700             16.26072
1758.79688  1049.60417  192.00000  18.63446             13.24788
1757.94545  857.18182   165.00000  16.59003             12.84973
1759.06383  1005.10638  188.00000  17.62645             13.59749
1760.95200  336.21600   250.00000  19.31602             16.50782
1761.94268  537.40764   157.00000  15.53313             13.00212
1769.31868  1165.30769  364.00000  28.82549             16.21475
1765.94413  1615.56425  179.00000  16.54346             13.85509
1769.83803  1566.60211  284.00000  28.81907             12.91036
1769.80460  277.86207   174.00000  20.49966             10.96694
1772.82310  1353.24910  277.00000  20.11507             17.84203
1776.02317  1652.84942  259.00000  25.97413             12.76580
1774.86341  1111.44390  205.00000  18.08099             14.55442
1776.38462  1322.11834  338.00000  21.75675             19.97112
1782.78661  537.56485   239.00000  27.78602             11.27866
1779.23333  742.66296   270.00000  19.84265             17.61552
1779.33624  665.37991   229.00000  17.67440             16.58337
1783.82129  396.46388   263.00000  26.17980             12.93456
1781.33083  1091.69925  133.00000  14.88896             11.41264
1788.70127  715.16203   395.00000  25.77630             19.96611
1788.06699  451.01435   209.00000  18.62162             14.37810
1789.74737  523.91053   190.00000  16.20968             14.94172
1791.62500  1073.36250  320.00000  24.42299             16.99898
1790.60571  1099.01143  175.00000  16.44232             13.83931
1793.90909  1517.24402  209.00000  20.39936             13.09539
1795.07115  327.70751   253.00000  20.77097             15.54906
1793.40223  1231.33520  179.00000  15.38185             14.92462
1797.70354  566.29204   226.00000  22.01171             13.37832
1796.23223  733.18483   211.00000  18.76721             14.43185
1798.80751  1210.48826  213.00000  17.15062             16.05282
1802.72489  664.45415   229.00000  19.22079             15.35114
1805.77241  1657.75172  290.00000  23.14621             16.41646
1805.17937  483.14798   223.00000  18.57149             15.34043
1808.16271  1031.36271  295.00000  24.97452             15.38904
1806.09589  652.90411   73.00000   11.27244             8.30792
1810.96923  1077.74872  195.00000  18.42647             13.69086
1811.19919  1105.47154  246.00000  20.25915             15.49221
1811.65730  258.42697   178.00000  18.23615             12.67732
1814.30208  1252.38542  192.00000  20.34255             12.22744
1812.96677  1556.47432  331.00000  28.06635             15.18340
1814.03620  447.47964   221.00000  19.95058             14.14377
1816.01136  1600.17424  264.00000  23.88652             14.41509
1815.48691  538.23560   191.00000  17.87973             13.66733
1815.33103  1698.18621  145.00000  18.03903             10.43647
1816.55882  1050.77647  170.00000  15.47455             14.15590
1818.75238  734.06190   210.00000  19.47262             13.79177
1819.17098  1119.73575  193.00000  17.77813             13.92320
1821.13761  418.04587   218.00000  20.36926             13.82010
1826.54872  603.80256   390.00000  25.96850             19.93711
1830.70933  768.24946   461.00000  40.97657             15.89213
1823.82437  716.78136   279.00000  20.57262             17.55840
1821.77519  367.06977   129.00000  13.63481             12.11812
1822.80874  688.75956   183.00000  17.34343             13.50293
1825.49798  507.47368   247.00000  19.30252             16.33558
1824.51208  1652.21256  207.00000  16.97433             15.65006
1827.72892  1689.21687  166.00000  15.86351             13.36824
1835.33654  568.57692   312.00000  24.03058             16.97234
1832.85398  671.35841   226.00000  17.88907             16.67150
1835.11465  1312.75796  314.00000  23.83597             16.98176
1843.72755  462.98142   323.00000  24.27470             17.84170
1843.54286  610.76667   210.00000  18.14260             14.83249
1844.32979  1690.19149  94.00000   11.44556             10.53222
1848.88372  270.91628   215.00000  20.05127             13.71062
1848.10900  711.65877   211.00000  20.24621             13.36118
1851.12785  1167.56164  219.00000  19.98676             13.99435
1849.97436  489.10897   156.00000  18.69344             10.70805
1853.12298  821.72168   309.00000  23.56654             16.78893
1857.82759  747.86207   290.00000  23.37016             15.86256
1855.51596  499.94149   188.00000  16.06868             15.11215
1852.76812  1145.02899  69.00000   10.89807             8.05841
1858.21622  641.28829   222.00000  19.34733             14.65394
1858.61017  1694.54802  177.00000  15.95145             14.17599
1866.10870  285.39130   230.00000  20.56614             14.34222
1865.04124  440.39175   194.00000  16.28684             15.29802
1865.80380  1002.07911  316.00000  26.59039             15.38476
1867.37879  664.89899   198.00000  21.07168             12.17341
1867.48052  1193.64286  308.00000  23.28861             16.88337
1866.06587  571.68263   167.00000  15.30412             13.95913
1866.45918  622.35204   196.00000  17.83824             14.05354
1867.33168  1398.27723  202.00000  17.25366             14.94262
1867.53070  791.37281   228.00000  20.44467             14.76320
1867.63158  733.97368   152.00000  15.01330             12.94512
1870.79668  844.91701   241.00000  20.61959             14.96062
1868.33493  1052.17703  209.00000  17.91029             14.94830
1872.50233  767.26047   215.00000  19.42607             14.21228
1873.65033  1090.74510  306.00000  22.05534             18.13324
1872.32212  1722.62019  208.00000  19.96912             13.34299
1871.67773  650.61137   211.00000  16.72728             16.17518
1873.29851  703.90050   201.00000  18.30550             14.00643
1874.90654  1369.64019  214.00000  19.11343             14.28476
1878.52308  548.83077   260.00000  23.21016             14.53135
1876.51852  27.05093    216.00000  18.55752             14.97952
1877.01442  1671.20192  208.00000  17.43151             15.24247
1879.37269  889.97786   271.00000  19.16060             18.01842
1881.23980  1132.88010  392.00000  27.63642             18.30848
1880.66667  576.85470   234.00000  18.52231             16.13527
1879.40952  777.39048   105.00000  13.68237             9.78110
1879.67176  789.86260   131.00000  13.61827             12.40527
1882.05435  934.39130   184.00000  16.84667             13.91735
1880.85915  978.55634   142.00000  17.28131             10.58177
1887.60227  614.69697   264.00000  23.73515             14.41716
1886.19431  1402.65403  211.00000  17.83911             15.08289
1891.28509  911.91447   456.00000  28.18768             21.04970
1887.04918  851.50820   183.00000  17.40052             13.44414
1887.92350  994.89617   183.00000  19.21132             12.27967
1888.80117  538.72515   171.00000  17.56610             12.48344
1890.41071  512.90179   224.00000  20.67115             13.96911
1889.08387  1742.67097  155.00000  15.53100             12.76038
1894.73488  694.09302   215.00000  19.62695             13.98383
1893.82036  259.46707   167.00000  16.91705             12.69866
1890.73750  723.88750   80.00000   12.75480             8.02558
1898.16319  779.49653   288.00000  25.26994             14.56226
1898.05525  875.91160   181.00000  17.44189             13.26500
1902.31636  1174.38545  275.00000  19.84981             18.55349
1901.17919  806.73988   173.00000  16.19589             13.66333
1901.55921  723.77303   304.00000  25.31289             15.37285
1902.63755  743.81223   229.00000  18.39566             16.00106
1903.53886  1676.39896  193.00000  21.67686             12.30437
1903.12879  553.20455   132.00000  15.14174             11.16701
1906.59912  835.85903   227.00000  20.23349             14.35050
1906.66071  1443.01339  224.00000  19.82432             14.46454
1907.51515  593.20779   231.00000  19.05595             15.48309
1907.98030  956.72414   203.00000  18.05679             14.33655
1910.78305  628.90169   295.00000  22.33815             16.99624
1907.98592  760.02347   213.00000  17.56809             15.46306
1910.80303  1236.17803  264.00000  20.60165             16.40275
1913.17663  669.01087   368.00000  31.53936             16.92524
1912.43774  932.27170   265.00000  22.91802             15.31445
1910.32192  40.04795    146.00000  16.99856             12.36812
1913.67480  503.05691   123.00000  14.82148             10.60653
1916.38312  563.42857   308.00000  33.74698             12.97588
1918.64571  882.70286   175.00000  15.99345             13.97099
1920.83468  728.60484   248.00000  20.16991             15.78424
1918.39655  462.86207   58.00000   9.18601              8.21921
1919.33945  520.84404   109.00000  14.38806             9.86136
1926.18280  605.72581   186.00000  17.14263             13.86436
1927.25833  787.67917   240.00000  20.37774             15.02331
1927.77483  261.66225   151.00000  17.07109             11.31288
1934.33889  569.30000   180.00000  17.86702             12.92985
1940.23077  641.67133   143.00000  14.56544             12.58183
1942.77143  59.65714    70.00000   14.55273             6.82129
1949.56271  1489.66102  295.00000  25.01476             15.14611
1947.35135  527.68649   185.00000  17.37702             13.65064
1946.15385  775.53254   169.00000  16.41125             13.47286
1955.07458  744.02712   295.00000  25.08653             15.44600
1955.46094  803.79688   256.00000  21.95797             15.25329
1951.54676  616.88489   139.00000  15.08849             11.73710
1952.97605  786.86826   167.00000  18.73297             11.49949
1954.73214  258.23810   168.00000  15.95334             13.51922
1960.00800  970.63200   250.00000  20.54654             15.53293
1960.48031  663.39370   127.00000  13.43025             12.15292
1966.31651  758.38073   218.00000  23.18013             12.10230
1968.51596  540.96277   188.00000  17.88572             13.48563
1975.78351  229.43299   97.00000   13.62498             9.61807
1979.89030  588.77637   237.00000  19.90859             15.18900
1980.51890  872.18557   291.00000  26.29038             14.80358
1984.30657  520.83212   274.00000  27.06273             13.47250
1986.19565  848.45652   230.00000  21.55951             13.88545
1983.05263  781.08271   133.00000  14.04905             12.13476
1982.26866  672.70149   67.00000   9.95634              8.60535
1986.93227  607.85259   251.00000  19.71271             16.37679
1990.45833  1325.43750  240.00000  20.34048             15.22415
1989.31122  889.64796   196.00000  16.20030             15.42253
1990.56774  541.63226   155.00000  15.15175             13.01142
1991.21023  813.95455   176.00000  16.91687             13.29003
1997.09375  694.98958   192.00000  17.67885             14.20619
1999.17164  570.68657   134.00000  15.93045             10.78687
2001.54673  790.28037   214.00000  23.14397             11.94999
2001.50612  1345.86531  245.00000  18.18424             17.24629
2011.43883  1508.17553  376.00000  33.80588             15.63456
2007.47368  526.77368   190.00000  17.31811             14.02291
2007.61783  608.20382   157.00000  14.77325             13.55519
2006.50476  733.37143   105.00000  14.13969             9.85004
2013.34749  889.69498   259.00000  26.04594             12.75653
2008.60952  101.98095   105.00000  13.95143             9.73251
2010.22699  265.60736   163.00000  16.01719             13.03083
2014.15152  929.89610   231.00000  19.18170             15.37548
2013.53659  180.30894   123.00000  16.06468             10.06582
2016.45408  944.27551   196.00000  17.33899             14.50928
2015.96970  747.55051   198.00000  17.70796             14.32202
2015.41176  804.21569   153.00000  14.64707             13.37028
2016.01000  49.02000    100.00000  12.57178             10.33162
2021.51429  575.32857   140.00000  18.51992             10.04400
2023.40000  1049.28095  210.00000  18.03169             14.86789
2025.71889  648.34101   217.00000  18.93562             14.74246
2024.56552  788.54483   145.00000  15.06653             12.25204
2026.50543  550.36957   184.00000  18.62572             12.68108
2026.03509  629.32749   171.00000  18.80400             11.88818
2026.89655  770.06322   174.00000  15.26004             14.53017
2030.06550  286.20087   229.00000  18.84054             15.64749
2027.65248  662.57447   141.00000  14.87063             12.09740
2031.78626  715.49618   262.00000  20.60731             16.24939
2031.13115  1467.31148  183.00000  16.96540             13.90711
2032.91620  604.06704   179.00000  16.59585             13.83592
2032.35172  881.51724   145.00000  15.10823             12.35196
2037.05714  581.22857   175.00000  16.98927             13.22625
2038.68394  629.60104   193.00000  18.17092             13.55756
2039.80124  656.98758   161.00000  16.89448             12.17488
2041.57746  1119.32394  142.00000  15.06429             12.35948