# Filename: Nuclei_416_ctrl_60x_011.npz
# Voxel size (nm): (108, 108)
# Area quantity: voxels
# Num nuclei detected: 1269
Y           X           AREA       MAJOR_AXIS_LENGTH    MINOR_AXIS_LENGTH
9.35211     973.92958   71.00000   9.99428              9.05199
16.80513    1354.14359  195.00000  16.48652             15.26504
23.78146    1283.46358  151.00000  15.67000             12.43780
32.04377    1336.56902  297.00000  23.27177             16.50103
33.34545    569.38182   55.00000   8.52668              8.24176
44.50811    1231.14054  185.00000  17.88700             13.18877
45.34807    160.97238   181.00000  17.20670             13.48340
46.69194    1409.45024  211.00000  18.05513             14.95711
47.04192    821.34731   167.00000  15.08933             14.26547
54.60119    1152.38095  168.00000  16.17940             13.30694
54.26446    1035.71901  121.00000  13.64938             11.30815
58.99422    1176.01734  173.00000  16.54696             13.56453
61.05714    812.03571   140.00000  13.60746             13.11134
64.45217    886.21739   115.00000  12.27198             11.96867
64.43548    909.91935   62.00000   10.43950             7.56100
68.92169    1277.54819  166.00000  16.65388             12.76883
67.73171    1015.48780  82.00000   13.27674             8.25440
69.43182    1373.23295  176.00000  16.41539             13.65322
69.65217    965.36522   115.00000  14.31520             10.56228
73.90426    449.59574   94.00000   13.35907             9.42876
76.51685    1068.62360  178.00000  16.04154             14.21322
75.47619    1506.00794  126.00000  14.38775             11.34866
83.71724    521.57241   145.00000  15.89639             11.63513
82.93706    915.09790   143.00000  15.94859             11.44029
82.97710    937.50382   131.00000  13.44783             12.40053
91.20727    1352.62182  275.00000  21.35020             16.45403
89.14286    1652.81319  182.00000  18.13659             12.92511
93.78636    961.39091   220.00000  19.74081             14.42465
89.79452    982.90411   73.00000   11.05748             8.53550
95.89600    603.64800   125.00000  14.05056             11.38043
96.59859    635.89437   142.00000  13.67418             13.23274
98.01695    1436.83051  118.00000  15.53334             9.72225
99.38095    674.30952   84.00000   11.11929             9.70675
105.48837   909.73643   129.00000  20.72241             8.19215
103.08589   1078.50920  163.00000  16.77057             12.65795
104.85315   650.27972   143.00000  15.31036             11.90035
105.34848   1033.40909  132.00000  15.05271             11.27379
109.67273   440.00000   165.00000  16.27940             12.97203
112.63529   977.84706   85.00000   13.32061             8.18679
115.01064   1054.44149  188.00000  16.01336             14.95897
113.90476   670.77381   84.00000   11.32942             9.48254
119.30189   1117.85377  212.00000  18.85682             14.37428
119.63584   1783.08092  173.00000  18.70103             11.89350
118.30645   730.49194   124.00000  13.83597             11.54924
130.89163   842.12315   203.00000  20.31411             12.89555
128.16495   902.79381   97.00000   12.10237             10.18816
132.41036   1134.25100  251.00000  19.53369             16.41323
133.80569   364.93839   211.00000  20.45917             13.26719
132.22652   649.38122   181.00000  16.43795             14.06441
136.17669   445.55639   266.00000  22.06353             15.50223
133.97333   615.67333   150.00000  16.43398             11.73452
137.44167   1316.73750  240.00000  18.80187             16.45801
137.25926   577.96296   162.00000  18.54787             11.16277
138.92174   1157.13913  230.00000  19.93851             14.86271
140.58333   1648.09722  216.00000  20.45880             13.52874
137.23684   636.34211   76.00000   10.78342             9.15943
141.42029   938.35507   138.00000  19.13153             9.30227
137.59223   855.91262   103.00000  12.99199             10.22078
141.56497   986.14124   177.00000  17.80400             12.70030
142.25974   505.61039   154.00000  14.63066             13.46064
142.70879   1077.09890  182.00000  16.69744             13.95246
143.51136   947.09091   88.00000   12.31695             9.05410
150.04242   547.49697   165.00000  16.98828             12.70169
158.21212   488.45833   264.00000  31.06938             12.12087
155.00621   642.63975   161.00000  15.16205             13.62808
154.92188   878.89062   192.00000  17.52351             14.20578
160.23629   1007.29536  237.00000  22.01657             13.73907
157.25850   613.88435   147.00000  15.01691             12.49918
159.85648   1087.37037  216.00000  18.14552             15.25077
162.47938   1190.16495  194.00000  18.15081             13.66020
169.19028   389.59109   247.00000  25.43426             12.48731
166.21429   1118.39560  182.00000  18.08810             12.83024
168.26056   1240.42606  284.00000  23.54242             15.62286
167.60645   809.49677   155.00000  16.24586             12.26351
168.02500   1103.33750  160.00000  15.88325             12.84872
166.84034   1409.59664  119.00000  13.73331             11.09691
169.84422   413.92965   199.00000  17.29130             14.74612
169.99010   559.96535   202.00000  17.15311             15.16665
172.07801   740.09929   141.00000  22.32333             8.86917
174.95238   1292.36310  168.00000  17.17657             12.46178
174.56522   468.87681   138.00000  16.36405             10.76332
174.29775   1022.69663  178.00000  19.18761             11.83029
173.03636   1259.05455  110.00000  16.00591             9.31257
179.38462   351.79638   221.00000  17.91852             16.03462
177.10317   708.84127   126.00000  14.55435             11.15734
174.27160   852.49383   81.00000   10.45001             9.87260
181.30978   871.38043   184.00000  16.54796             14.17165
185.29545   257.06818   176.00000  20.20138             11.63367
185.01478   1044.93103  203.00000  18.04522             14.49732
191.87554   1318.40773  233.00000  20.16671             14.91411
190.49010   1654.54950  202.00000  19.53994             13.35025
192.15976   915.79290   169.00000  14.97822             14.40175
190.77273   1024.87879  132.00000  13.37272             12.60062
194.12162   959.80405   148.00000  15.37126             12.28305
193.01351   540.90541   74.00000   10.42754             9.06948
194.33871   713.80645   124.00000  14.12606             11.37428
200.69565   1389.71304  230.00000  22.46864             13.05689
198.54839   589.94839   155.00000  15.40322             12.91371
198.61856   857.93814   97.00000   12.51341             10.04088
200.35749   631.58937   207.00000  22.35849             12.18269
204.14815   1302.20370  216.00000  19.09756             14.49041
207.89630   367.30370   135.00000  18.62720             9.74652
207.47783   916.98030   203.00000  18.84203             13.80006
205.31579   964.56391   133.00000  14.12725             12.16647
209.76735   344.21633   245.00000  22.65704             13.89108
209.80328   170.70902   244.00000  18.69745             16.68922
205.22388   1064.52239  67.00000   10.39354             8.17715
213.02930   1105.14286  273.00000  23.02715             15.56141
208.88750   565.62500   80.00000   11.22017             9.09150
211.57803   619.22543   173.00000  16.26050             13.61923
213.86420   745.72840   162.00000  16.02601             12.92190
215.83708   402.20787   178.00000  18.40622             12.36362
211.79310   682.75862   58.00000   9.16879              8.05834
213.72000   950.01333   75.00000   11.19085             8.55497
219.35610   784.39024   205.00000  17.73099             14.77688
220.66500   971.79000   200.00000  18.05990             14.21755
222.48361   1153.19262  244.00000  22.09113             14.37804
222.55285   1361.43496  246.00000  19.50790             16.13397
219.58065   725.61290   62.00000   11.15674             7.10246
224.94706   329.81765   170.00000  17.81125             12.31427
229.01942   242.14563   206.00000  20.10732             13.53352
226.46226   551.09434   106.00000  14.56511             9.34021
227.78070   627.97368   228.00000  20.82182             14.30205
231.40385   1044.75962  208.00000  19.73719             13.50732
234.09664   1277.34874  238.00000  21.20547             14.36606
233.54762   768.39286   168.00000  19.94430             10.81908
233.01212   812.39394   165.00000  14.83297             14.21035
235.66187   757.83453   139.00000  14.86913             11.91613
236.96354   469.11458   192.00000  19.26094             12.70308
239.42254   886.22535   213.00000  18.81154             14.41493
240.15640   301.19905   211.00000  17.27273             15.75410
240.33333   649.59748   159.00000  16.48568             12.46795
242.88646   911.72489   229.00000  20.63457             14.15735
240.00000   844.72277   101.00000  12.43805             10.49781
242.96429   1229.92857  224.00000  17.60896             16.28215
244.39286   523.15476   168.00000  17.16991             12.60607
244.18405   745.06748   163.00000  16.32759             12.78361
247.97119   455.83539   243.00000  20.56543             15.12604
243.10811   731.51351   37.00000   7.83832              5.98132
255.35281   940.83117   462.00000  33.74753             17.77659
251.61290   1064.62366  279.00000  21.33693             17.02287
246.44231   180.71154   52.00000   10.30585             6.75541
249.19802   834.30693   101.00000  12.04547             10.76572
248.04286   811.31429   70.00000   10.67885             8.40464
255.06122   482.56633   196.00000  18.35995             13.64291
257.71856   1030.47305  167.00000  17.31091             12.93974
254.53261   559.89130   92.00000   11.23622             10.51593
259.41126   621.32468   231.00000  20.06687             14.81989
257.08383   859.06587   167.00000  16.50675             12.87868
258.51562   1245.36458  192.00000  19.68260             12.53520
260.88542   889.54688   192.00000  17.60562             14.09953
261.32105   801.46316   190.00000  16.77134             14.69546
261.26744   816.84302   172.00000  18.05954             12.20895
264.54878   1176.68699  246.00000  18.71725             16.88489
273.39039   1217.53754  333.00000  32.12473             13.30368
264.93846   703.89231   130.00000  15.90426             10.49435
266.36522   1111.82609  115.00000  14.47045             10.22981
268.69027   735.07080   226.00000  20.88650             13.91558
267.86325   787.44444   234.00000  18.49038             16.13448
269.32683   956.74634   205.00000  17.86112             14.71544
269.87356   426.37356   174.00000  15.92305             13.90494
269.69652   765.49254   201.00000  17.79893             14.46052
271.11050   827.08287   181.00000  18.06249             12.92153
272.86131   676.34307   137.00000  18.43130             9.52262
271.74400   595.99200   125.00000  15.06691             10.57254
273.41573   860.24157   178.00000  16.27253             14.16436
272.33793   503.44138   145.00000  15.16812             12.23750
273.85156   698.21875   128.00000  14.30644             11.40538
277.30918   1033.22705  207.00000  21.59012             12.27681
276.34559   166.11029   136.00000  13.59061             12.78839
279.02000   451.08000   150.00000  18.59623             11.08474
278.89243   634.18725   251.00000  19.48167             16.73668
278.49419   713.34884   172.00000  17.56637             12.57853
280.21560   1093.32569  218.00000  20.15087             13.81452
283.36652   1054.70588  221.00000  24.59736             11.58628
281.73764   1156.38023  263.00000  21.69285             15.48156
285.47111   786.84444   225.00000  19.04671             15.21184
286.63850   1133.66667  213.00000  16.59231             16.41138
287.78125   1230.98438  192.00000  17.87225             13.79842
290.51406   1282.05221  249.00000  23.64398             13.50530
290.09524   469.01984   252.00000  22.89404             14.27053
291.69919   181.90650   246.00000  19.24808             16.51671
288.71818   651.36364   110.00000  13.47170             10.58299
293.45553   765.34232   371.00000  24.24190             19.93948
293.80198   704.62871   202.00000  18.63314             13.87329
294.52713   897.02584   387.00000  31.76885             16.49208
293.93119   1485.43578  218.00000  17.97871             15.59936
297.00962   605.00000   104.00000  12.60652             10.61191
302.01724   995.44828   232.00000  22.47251             13.36649
300.60769   838.42308   260.00000  20.87319             16.63265
307.98438   665.26953   256.00000  25.97781             13.20698
304.26042   454.38021   192.00000  19.58558             12.53357
305.38258   1196.41667  264.00000  20.16334             16.73733
304.46977   812.72093   215.00000  22.02483             12.58532
303.53333   744.60833   120.00000  13.07174             11.84866
312.22174   630.14783   230.00000  22.79278             12.93381
310.30120   564.03614   249.00000  19.65612             16.20811
308.43506   963.22078   154.00000  14.11908             13.95211
312.70796   735.88938   226.00000  21.00799             13.81314
311.94040   977.82781   151.00000  15.40407             12.66838
314.83537   416.35366   164.00000  19.22434             10.96289
315.96257   439.91444   187.00000  19.61946             12.15437
318.12016   908.96512   258.00000  19.28469             17.86961
322.04898   1218.28571  245.00000  23.10048             13.56147
320.93038   726.95570   158.00000  18.58043             11.05912
324.29545   686.44886   176.00000  17.04247             13.35281
324.44161   1164.21168  274.00000  21.30872             16.41342
325.72881   405.35169   236.00000  19.65891             15.32026
321.92737   870.69832   179.00000  19.06188             12.26423
326.65652   1064.79130  230.00000  25.69458             11.54894
324.25610   1142.65244  164.00000  19.93427             10.62597
327.39815   1719.73611  216.00000  19.01319             14.53845
326.77835   812.41753   194.00000  20.42800             12.56685
330.17742   1124.85484  186.00000  20.79214             11.52683
330.75581   973.01163   172.00000  17.39355             12.58815
333.18519   545.88889   189.00000  17.69348             13.64454
336.25118   793.95735   211.00000  17.88176             15.08649
335.90610   465.00000   213.00000  19.35155             14.28043
336.72000   728.69333   150.00000  20.35226             9.63811
337.66216   873.44595   148.00000  17.37857             10.98421
338.03347   614.62343   239.00000  20.52315             14.85478
335.00000   1032.96552  116.00000  15.21822             9.99864
338.18471   1088.70064  157.00000  15.79452             12.70811
339.25610   639.25000   164.00000  20.06681             10.51158
338.72115   752.68269   104.00000  12.09345             10.98815
343.16552   671.20690   145.00000  15.41136             12.07510
346.98868   434.44151   265.00000  21.27891             15.97534
344.23125   567.83750   160.00000  15.01193             13.72093
344.19892   831.38710   186.00000  16.52934             14.37320
344.92268   1242.71649  194.00000  19.62772             12.98412
347.54819   746.61446   166.00000  18.90704             11.30359
346.68519   1067.53704  108.00000  12.65668             11.24051
347.45506   1717.42697  178.00000  15.90297             14.37266
348.97661   687.74854   171.00000  15.28671             14.31672
350.61749   525.53005   183.00000  16.94350             13.78463
352.89809   348.71975   157.00000  18.30194             11.04586
358.88963   1397.57860  299.00000  20.91172             18.48903
357.82873   794.74586   181.00000  19.00486             12.18676
356.47917   1015.88542  96.00000   11.55928             10.59871
358.81061   550.72727   132.00000  14.09393             12.36651
356.68333   881.25000   60.00000   10.06424             7.59649
360.52660   487.89362   188.00000  18.28574             13.08535
360.16568   774.85799   169.00000  15.45323             14.01133
357.52419   906.50000   124.00000  14.34689             11.11071
360.21134   981.44330   194.00000  16.14102             15.61721
360.82791   1094.93023  215.00000  20.63750             13.45716
363.03543   1129.16142  254.00000  20.49778             15.85970
362.61404   671.81140   228.00000  19.41575             15.00196
362.31858   950.17699   113.00000  12.50941             11.51106
367.21739   851.58454   207.00000  20.34165             12.99922
369.67220   920.38589   241.00000  21.39746             14.50216
367.97196   438.43925   107.00000  15.68131             8.72244
373.56863   1344.82745  255.00000  19.40438             17.00382
377.30802   645.13924   237.00000  19.74936             15.43188
377.13910   784.36842   266.00000  21.21456             16.23797
376.48333   1544.77778  180.00000  18.39515             12.60430
376.90868   887.32877   219.00000  20.31471             13.74482
382.71260   564.50000   254.00000  24.50866             13.92853
380.08543   459.48744   199.00000  17.20646             14.86148
379.74839   1228.21935  155.00000  15.20586             13.11312
385.55401   664.03833   287.00000  20.96465             17.61795
382.34615   853.86538   52.00000   8.48658              8.14777
385.34161   431.65839   161.00000  15.31351             13.45147
387.16837   600.49490   196.00000  22.14328             11.43557
389.24229   1479.82819  227.00000  21.40821             13.56254
385.94083   1683.78698  169.00000  15.40336             14.04521
387.67000   1610.29000  200.00000  17.32140             15.00137
387.63235   1745.54412  136.00000  14.21761             12.20973
391.72500   1460.06500  200.00000  17.98964             14.26799
394.56587   1528.29042  334.00000  23.31452             18.32498
391.57669   811.56442   163.00000  15.46739             13.52155
393.24528   1229.01887  106.00000  12.29767             11.21770
395.98174   1328.19178  219.00000  18.61538             15.05597
394.89683   786.84921   126.00000  15.30961             10.55909
397.30244   1075.15122  205.00000  16.86419             15.49364
395.66142   556.49606   127.00000  16.75143             9.70003
396.50909   1268.30909  165.00000  16.29307             12.95540
399.41333   506.58667   150.00000  19.74373             10.01456
399.08898   608.98305   236.00000  21.20874             14.39952
400.00806   1220.74194  124.00000  15.89447             10.08876
399.57237   528.13158   152.00000  16.60902             11.73348
402.04908   917.53374   163.00000  15.72600             13.19874
405.74519   1187.33654  208.00000  17.73663             14.97766
406.56934   1211.66423  137.00000  14.87135             11.90958
414.68404   714.87296   307.00000  22.99884             17.35805
416.82961   774.31285   358.00000  24.35014             18.80066
415.27132   836.64729   258.00000  20.56148             16.13254
424.33516   1049.53297  182.00000  18.50390             12.57634
425.00311   867.13975   322.00000  20.75403             19.86197
426.26848   951.95331   257.00000  19.29091             17.03725
426.31250   1593.94271  192.00000  17.35712             14.07830
427.73364   458.49533   214.00000  19.18517             14.21429
429.45390   988.22340   282.00000  19.95491             18.12577
433.92440   1217.13746  291.00000  30.16399             12.44015
434.92222   1142.02778  180.00000  17.09559             13.39936
438.47500   532.84643   280.00000  22.49608             15.88159
441.89320   485.32039   309.00000  21.67827             18.67438
441.77955   810.51757   313.00000  29.14268             13.82611
440.67582   1757.89011  182.00000  18.35123             12.89328
444.52427   888.00324   309.00000  24.44250             16.93710
443.89385   1017.92737  179.00000  18.60959             12.37991
444.33505   834.18557   194.00000  20.25963             12.19701
441.75385   1651.73846  65.00000   9.63353              8.97992
445.56652   1593.03863  233.00000  20.25296             14.72749
458.07477   1232.74143  321.00000  22.69133             18.32028
456.14741   1645.24701  251.00000  20.07612             15.96285
455.29268   1002.62195  164.00000  17.55599             12.23083
460.02491   1677.51601  281.00000  19.35287             18.53151
461.37500   1094.86161  224.00000  19.34467             14.76526
460.31852   1533.44815  270.00000  20.58080             16.75204
467.35377   967.35849   212.00000  21.00062             12.91957
470.44672   1729.20902  244.00000  20.20716             15.46148
476.02791   1101.09302  215.00000  17.68478             15.88183
479.34412   895.93235   340.00000  27.69707             15.79981
485.97872   691.32979   282.00000  29.60047             12.32051
481.94634   1236.57073  205.00000  18.10227             14.58119
491.89370   1452.12992  254.00000  19.25781             16.88010
494.52151   1035.31989  372.00000  27.76824             17.65167
492.88426   997.86574   216.00000  19.98152             13.84354
503.28158   1504.18421  380.00000  28.78805             17.18153
503.62357   1107.73384  263.00000  23.83876             14.39454
503.56228   520.00712   281.00000  24.65773             14.58724
502.76331   1755.31361  169.00000  18.44678             11.85580
507.02575   998.72103   233.00000  21.11622             14.30357
511.44444   952.35873   315.00000  21.57257             18.65327
511.54839   1242.03687  217.00000  20.44669             13.73726
517.03944   1673.40000  355.00000  26.92023             17.95568
517.25362   1645.71014  276.00000  21.87346             16.17266
512.10714   1025.07143  28.00000   7.36731              4.75398
518.41589   1722.92523  214.00000  17.43621             15.66114
520.08645   1146.74065  428.00000  31.55999             17.52556
522.57823   1333.72109  294.00000  20.91606             19.12096
517.79545   872.20455   44.00000   8.16440              6.90218
524.34568   1388.39198  324.00000  21.48007             19.25692
523.68302   1549.50189  265.00000  20.24269             16.73927
526.95413   1593.03976  327.00000  23.52915             18.40378
526.50510   1113.57653  196.00000  18.65344             13.42690
530.16471   895.47451   255.00000  19.02211             17.13217
529.95263   1219.94737  190.00000  17.49650             13.90732
531.60251   864.52720   239.00000  18.36018             16.59448
531.80471   1044.18519  297.00000  23.81286             16.01613
532.85766   1248.83212  274.00000  22.05273             15.97342
532.58621   1292.93534  232.00000  19.16617             15.51828
532.45122   1519.06098  164.00000  16.30754             12.89415
532.20652   1312.77174  92.00000   13.79100             8.62434
535.54545   736.54545   198.00000  16.97285             15.02918
536.40698   1368.23256  258.00000  22.46895             14.74022
535.48315   1468.52247  178.00000  16.52921             13.73700
539.57692   909.30385   260.00000  20.66879             16.19587
539.32174   574.20000   230.00000  20.07196             14.63656
539.57979   713.80851   188.00000  16.65428             14.51593
544.28571   1082.41497  294.00000  22.95944             16.37861
545.62100   1400.11416  219.00000  17.58891             15.91115
546.38647   1332.14493  207.00000  19.32585             13.64484
548.33645   1445.41589  214.00000  17.64673             15.56102
552.39489   860.32670   352.00000  23.68284             19.02181
546.93182   1470.60227  88.00000   11.01692             10.20803
548.92000   736.49000   100.00000  12.75161             10.15147
551.68545   806.54930   213.00000  19.36956             14.10378
550.65432   1308.46296  162.00000  15.09637             13.68942
549.53153   1424.64865  111.00000  12.33593             11.48581
555.85978   1386.39114  271.00000  20.03174             17.44861
556.61677   730.53892   167.00000  18.20447             11.83501
561.17059   627.18529   340.00000  28.95853             15.10942
558.92361   1414.27083  144.00000  15.59304             11.77715
559.68919   1461.17568  74.00000   9.99299              9.44648
569.60550   1309.26147  218.00000  18.89649             14.70190
577.98447   1179.73292  322.00000  22.83045             18.05197
583.88000   1259.97200  250.00000  18.72112             17.06636
588.24272   1199.45631  309.00000  24.21966             16.28374
616.82609   1961.58261  115.00000  13.34396             11.54904
627.05333   1859.80000  150.00000  16.09532             11.86993
632.88889   1759.87963  216.00000  25.18352             11.89575
630.54545   1816.98788  165.00000  16.61409             12.83308
644.52239   715.35448   268.00000  21.85358             15.65818
651.45251   1753.13408  179.00000  18.98289             11.99519
672.22705   1673.72947  207.00000  20.15219             13.35974
673.25946   1699.00000  185.00000  18.17385             13.02167
678.90674   711.62176   193.00000  18.65796             13.18350
692.96653   1011.37657  239.00000  18.61832             16.40059
694.25118   1044.71090  211.00000  20.17951             13.36881
707.73128   1630.10132  227.00000  21.51064             13.47110
713.13415   1586.98780  164.00000  15.41819             13.54447
715.02210   725.73481   181.00000  18.39330             12.55798
714.87705   914.42213   244.00000  21.14844             14.89894
715.71564   933.75355   211.00000  18.86988             14.28861
720.41969   953.09326   193.00000  17.91132             13.92055
722.84416   923.15584   77.00000   10.34732             9.70205
730.29101   1557.95767  189.00000  18.41892             13.08074
731.79703   962.23267   202.00000  17.83662             14.86084
733.23387   1000.18145  248.00000  20.29647             15.79729
733.41279   1056.61628  172.00000  16.16634             13.60180
739.01894   748.60985   264.00000  21.79758             15.98863
737.56216   932.33514   185.00000  17.55363             13.47672
742.54196   1355.32867  286.00000  21.35899             17.21182
738.94958   1842.05882  119.00000  13.22080             11.67797
743.97834   904.03610   277.00000  20.92526             17.03332
752.06875   1325.64062  320.00000  24.37189             16.87657
746.93162   1849.27350  117.00000  14.67200             10.31839
748.55985   1007.17761  259.00000  23.17816             14.26347
747.74194   1941.23656  93.00000   12.49071             9.76056
752.37778   1968.26667  135.00000  15.26172             11.32873
755.75740   1577.88757  169.00000  15.46222             13.98776
756.80114   1903.05114  176.00000  16.04252             14.03759
762.03191   1509.61702  188.00000  17.09729             13.98938
765.36576   978.54475   257.00000  22.37777             14.72724
760.71698   1951.04717  106.00000  13.15158             10.42774
764.96316   847.91579   190.00000  16.99918             14.29862
768.45161   1278.79211  279.00000  24.27949             14.82755
769.04808   1490.94231  312.00000  23.63473             16.91992
770.85556   1556.90000  180.00000  15.89938             14.49154
779.43438   836.73750   320.00000  26.81035             15.53170
781.02966   1225.15678  236.00000  19.73050             15.28470
783.33333   787.84375   192.00000  18.96669             12.91367
784.42289   1036.32836  201.00000  17.68981             14.49160
788.38272   804.64198   243.00000  23.10925             13.70487
792.31481   1067.12500  216.00000  21.38103             12.88328
792.59443   1467.24149  323.00000  25.61716             16.21711
796.11525   1003.84068  295.00000  20.24415             19.22066
795.58371   776.19910   221.00000  20.88229             13.51713
801.51667   1529.96333  300.00000  26.57705             14.85511
796.95238   1159.58095  210.00000  19.72690             14.34021
797.71429   1207.09524  42.00000   7.77955              6.90954
804.95364   820.17219   151.00000  16.11524             12.39213
808.38710   1067.06452  124.00000  16.80095             9.53970
809.76471   1424.78922  204.00000  19.12651             13.63500
807.14444   765.56667   90.00000   11.56952             9.90887
814.28346   798.84252   127.00000  16.06545             10.18870
813.26291   1148.67136  213.00000  17.57342             15.49203
815.69434   734.83019   265.00000  24.97671             13.90277
820.37389   583.96736   337.00000  28.32327             15.24483
815.45385   674.31538   130.00000  13.57932             12.35405
815.25641   665.44872   78.00000   13.06046             7.90470
817.43939   1121.37500  264.00000  19.60511             17.55849
823.07576   548.54167   264.00000  19.18688             17.78282
822.08000   1551.65000  200.00000  18.47455             13.80972
828.06599   809.61929   197.00000  20.18554             12.86489
824.68724   1004.66255  243.00000  22.46573             14.00597
826.72165   516.21649   291.00000  21.96443             16.99567
826.11983   614.79339   242.00000  21.67874             14.29543
824.35878   1058.15267  131.00000  14.92875             11.73944
826.04933   687.47534   223.00000  21.91399             13.30420
833.42917   1579.96667  240.00000  21.61174             14.18103
835.03113   991.65370   257.00000  23.89722             14.00167
838.33913   1042.09348  460.00000  29.59565             20.36867
837.16149   783.49379   322.00000  22.92379             18.34440
836.36458   799.90625   96.00000   12.24858             10.00191
841.33121   921.34713   314.00000  21.10168             19.09825
843.05882   874.35294   187.00000  17.93706             13.41958
845.10630   944.50394   254.00000  22.23767             14.74020
843.71765   1081.27059  170.00000  15.36941             14.11941
843.48966   1420.15172  145.00000  14.87469             12.48120
847.65505   1491.04530  287.00000  22.53458             16.86919
852.06920   724.68166   289.00000  22.95116             16.42145
845.81481   1875.23457  81.00000   11.05798             9.40426
850.64945   677.18081   271.00000  21.00500             16.48140
859.68837   1415.49767  215.00000  18.60398             14.83438
858.04459   1602.45223  157.00000  14.71742             13.76849
862.34416   2012.40909  154.00000  15.09079             13.23540
868.90000   1087.97600  250.00000  23.27640             13.78434
870.57143   1484.15238  210.00000  18.86834             14.25180
873.78919   844.15676   185.00000  16.91836             14.17630
877.55987   804.45631   309.00000  21.61473             18.58151
873.32086   1608.49733  187.00000  18.51342             12.88914
877.16807   991.85714   238.00000  23.47032             13.68171
881.86184   1006.20395  152.00000  15.82393             12.29465
878.64912   1025.14035  57.00000   9.46765              7.68740
881.09494   1855.08861  158.00000  15.62465             12.90101
889.18293   845.32520   246.00000  22.06047             14.46338
887.32836   948.58209   201.00000  17.79306             14.61690
886.95392   1449.95853  217.00000  20.20318             13.76131
891.46078   1619.58824  204.00000  16.71143             15.65155
893.01442   813.07692   208.00000  20.62040             13.23199
899.63522   1940.18868  159.00000  15.28188             13.49743
902.16250   1833.93333  240.00000  20.70948             14.96742
908.36515   814.66390   241.00000  19.45427             15.94380
908.04265   1608.39336  211.00000  16.85565             16.06675
910.41748   924.28641   206.00000  18.60032             14.29729
911.04225   1100.39906  213.00000  19.55146             13.93444
912.44483   865.92414   290.00000  28.56814             13.13576
914.54545   971.44755   143.00000  16.26848             11.21128
917.97403   898.81818   231.00000  23.41711             12.63608
919.73134   787.84701   268.00000  21.14823             16.39073
916.54839   1881.09140  186.00000  17.68128             13.45710
921.86207   958.86590   261.00000  20.30968             16.45466
926.11847   934.56794   287.00000  23.29647             15.72456
928.12935   1088.46269  201.00000  17.77474             14.52284
927.82540   886.76984   126.00000  13.69218             12.08494
930.78598   1121.17712  271.00000  20.37848             17.03522
930.32950   1668.50958  261.00000  19.27606             17.69163
932.55963   1480.89297  327.00000  24.95464             16.87619
933.09569   1865.95694  209.00000  18.87605             14.19067
934.17904   1907.96070  229.00000  18.96987             15.59726
936.92523   988.00000   214.00000  17.98737             15.23739
942.02167   1034.31889  323.00000  26.10331             16.53830
940.11737   1693.43192  213.00000  18.62737             14.61923
939.03409   1804.52841  176.00000  17.76908             12.70831
945.49378   967.87967   241.00000  26.56750             11.65523
943.12121   1679.45455  99.00000   14.46960             8.84085
948.25725   807.01087   276.00000  22.10430             16.48425
953.93694   1610.39940  333.00000  30.49858             14.13538
949.19481   887.67965   231.00000  19.06451             15.70538
948.08734   855.06550   229.00000  17.99391             16.33740
949.71564   1885.25592  211.00000  17.73415             15.19702
948.59184   876.97959   49.00000   10.28319             6.18029
954.91829   1144.31518  257.00000  22.66003             14.49547
953.26244   1771.23529  221.00000  18.91361             14.95567
953.86735   1688.72449  98.00000   13.59311             9.17053
960.72396   1100.33333  192.00000  23.14463             10.79717
963.07955   815.77652   264.00000  28.31846             12.53168
962.97561   903.04472   246.00000  21.23231             14.96911
960.11386   1124.59406  202.00000  18.78844             13.73699
962.98326   923.41841   239.00000  19.64452             15.64802
966.01786   705.60119   336.00000  24.75691             17.76494
964.69697   1090.70455  132.00000  14.36826             11.77655
967.06818   1827.78977  176.00000  17.45958             12.84593
970.95528   792.20732   246.00000  18.36008             17.18032
973.50000   849.22500   160.00000  17.24871             12.37222
979.34981   1182.58175  263.00000  22.23333             15.94364
977.61991   834.55204   221.00000  20.48498             13.92032
978.44000   1082.13500  200.00000  16.55740             15.43448
979.10326   1094.92391  184.00000  20.75375             11.34714
977.92000   1055.32000  200.00000  17.85532             14.33620
979.38889   1592.13095  252.00000  22.22050             14.83024
982.29297   858.07422   256.00000  22.47085             14.67480
981.81421   1721.65027  183.00000  20.42943             11.50424
985.54545   1613.62201  209.00000  18.15429             14.87386
989.23828   1525.17188  256.00000  27.97257             11.89398
985.00585   978.02339   171.00000  18.07673             12.41228
982.86538   1007.94231  52.00000   8.70270              7.66087
991.00791   1830.33597  253.00000  21.57871             15.33702
990.51445   1857.26012  173.00000  17.35149             12.74796
993.86434   987.91473   258.00000  22.72496             14.72232
995.51295   1008.47150  193.00000  17.32779             14.28219
999.14844   906.49609   256.00000  20.38567             16.20020
1002.33459  1070.14286  266.00000  23.98183             14.68319
996.48529   1084.38235  68.00000   10.26685             8.49996
1001.30435  1167.47826  230.00000  19.12925             15.43765
1008.11921  688.46689   302.00000  25.20749             15.47374
1007.86145  1219.47590  332.00000  23.70692             18.16465
1002.51220  1038.53659  82.00000   11.31605             9.29313
1006.13274  1719.00885  226.00000  19.03033             15.28626
1009.06161  1675.63033  211.00000  22.03589             12.52190
1009.42453  1842.85849  212.00000  18.23505             14.97594
1012.16186  743.49667   451.00000  33.74886             17.57924
1010.82011  1588.62434  189.00000  17.37899             13.86401
1015.68605  30.27616    344.00000  24.28631             18.17438
1019.58987  768.12658   395.00000  24.73365             21.29248
1013.13714  1015.96571  175.00000  17.72939             12.60024
1015.59751  795.06639   241.00000  23.11503             13.44529
1014.39806  1493.27670  206.00000  19.46199             13.50997
1016.15766  1460.48649  222.00000  23.37064             12.74730
1018.04545  1062.65152  66.00000   11.58563             7.23900
1021.64312  1300.87361  269.00000  21.98877             15.75368
1025.52475  1614.09901  202.00000  17.00031             15.32134
1031.03670  897.04893   327.00000  26.57316             16.01404
1026.11111  1025.59671  243.00000  23.35508             13.95185
1027.36652  1186.00905  221.00000  19.22900             14.72784
1027.32432  1520.54595  185.00000  17.37623             13.59585
1026.57592  1534.31937  191.00000  17.49387             14.14618
1030.88037  1252.26994  326.00000  28.45621             14.87750
1029.00505  1373.27273  198.00000  17.49617             14.54518
1028.60092  121.63761   218.00000  29.22798             9.97302
1030.58537  62.11707    205.00000  18.93773             14.17906
1032.79861  314.47917   288.00000  25.58625             14.82937
1032.84472  966.03727   161.00000  16.28236             12.61438
1033.78873  155.43662   213.00000  21.04995             12.95746
1034.44118  1596.58824  204.00000  18.65587             13.93030
1036.62009  1627.16157  229.00000  21.26704             14.03580
1035.37008  978.33858   127.00000  15.92084             10.20177
1037.61572  1413.82096  229.00000  20.56899             14.24052
1039.29697  989.46667   165.00000  15.92041             13.38553
1037.27972  251.85315   143.00000  15.12431             12.13593
1037.96889  1383.30222  225.00000  25.83455             11.43431
1038.70922  231.26950   141.00000  14.02106             12.82898
1043.38028  196.31455   213.00000  20.56581             13.27942
1040.38627  1452.28755  233.00000  20.84478             14.45667
1044.50459  1722.33028  218.00000  19.22772             14.53242
1045.41753  953.53093   194.00000  17.96768             14.14822
1046.65829  382.15578   199.00000  18.59314             13.68484
1051.16304  922.00000   92.00000   13.19758             8.87636
1056.92982  961.30994   171.00000  18.26827             11.94527
1056.13613  234.53927   191.00000  20.84016             11.76137
1061.75362  145.37681   207.00000  17.97447             14.73023
1069.28996  859.76580   269.00000  22.61277             15.67470
1068.80349  699.84279   229.00000  18.16453             16.10465
1065.24359  1823.05128  156.00000  16.11029             12.36954
1068.74477  50.92887    239.00000  21.00117             14.51947
1069.80913  400.69710   241.00000  21.85122             14.13657
1071.34314  126.03922   204.00000  17.81344             14.62164
1072.66825  1204.67773  211.00000  17.94496             15.04799
1071.68718  1750.17949  195.00000  17.19840             14.64453
1075.30909  844.34091   220.00000  24.27410             11.77508
1076.42105  282.46890   209.00000  24.88179             11.08111
1082.55512  757.75591   254.00000  22.22490             15.03423
1086.03889  901.67222   180.00000  23.45730             9.97835
1083.86432  1822.83920  199.00000  17.08580             14.95421
1083.54737  1664.14737  95.00000   12.07967             10.04481
1082.16216  1068.27027  37.00000   7.38032              6.45532
1087.40909  888.55844   154.00000  14.86381             13.26933
1090.87713  1797.60410  293.00000  22.31666             16.89221
1091.92405  769.25738   237.00000  20.30240             15.00358
1093.10000  874.93529   170.00000  16.63913             13.33000
1098.70696  1586.83883  273.00000  23.66189             15.28134
1095.96522  418.81739   115.00000  16.45445             9.09864
1099.66848  1213.44022  184.00000  19.49412             12.04297
1103.13095  702.23512   336.00000  27.32010             16.18423
1104.23843  310.76512   281.00000  19.89874             18.46721
1097.00000  858.75610   41.00000   7.23137              7.16525
1103.28906  426.93750   128.00000  17.22838             9.62594
1109.39865  1658.23311  296.00000  27.82709             14.43055
1106.77273  1096.27841  176.00000  19.48748             11.87390
1109.15612  1817.64135  237.00000  25.02850             13.07635
1110.55030  871.05325   169.00000  17.25618             13.02919
1109.26316  883.90789   152.00000  16.78677             11.63084
1111.85207  1087.24852  169.00000  17.81619             12.27746
1114.52466  1712.17937  223.00000  19.87244             14.55917
1116.29885  1116.25670  261.00000  22.79631             15.27745
1117.34364  1763.82131  291.00000  22.83265             16.55839
1114.30588  773.98824   85.00000   11.30803             9.60115
1115.88182  1208.00909  110.00000  12.99924             11.13694
1124.22043  876.10215   186.00000  17.84240             13.53034
1127.37209  1731.36628  172.00000  17.46657             12.58456
1126.39412  1206.70000  170.00000  16.37916             13.58842
1127.25166  854.23841   151.00000  15.51135             12.42587
1137.18151  1055.52740  292.00000  27.05674             13.87998
1138.88360  1721.26455  189.00000  17.85547             13.55428
1147.57778  714.76000   225.00000  19.41477             14.82173
1148.83951  1164.50206  243.00000  19.06734             16.37798
1150.03497  1682.07343  286.00000  23.56268             15.70160
1149.10000  1823.18889  180.00000  16.59074             13.94971
1150.77848  826.44937   158.00000  16.47454             12.23468
1154.57322  315.91213   239.00000  22.41637             13.66577
1153.86935  858.73869   199.00000  18.92561             13.66996
1159.56568  943.74799   373.00000  27.63907             17.62902
1158.85340  1108.10995  191.00000  18.89859             12.89515
1163.81250  1554.07083  240.00000  21.04045             14.66481
1162.96000  1056.40364  275.00000  27.15576             13.96117
1164.01575  1790.96850  127.00000  13.46250             12.10587
1167.25175  826.19580   143.00000  16.40785             11.18101
1169.53521  1730.10329  213.00000  18.04654             15.22817
1166.10909  2001.98182  55.00000   10.41434             6.98053
1171.98734  1801.93671  158.00000  16.17264             12.49807
1171.20321  1880.82888  187.00000  17.25622             13.83333
1181.38494  451.34310   239.00000  20.52388             14.89564
1182.03604  711.84234   222.00000  17.51193             16.18403
1186.29389  949.39695   262.00000  22.76157             14.98576
1180.56044  1822.14286  91.00000   12.40709             9.63556
1186.15768  306.21162   241.00000  19.22914             16.03048
1186.23188  833.51449   138.00000  14.23274             12.76715
1190.94634  1071.02927  205.00000  21.08287             12.47902
1189.16667  1810.28571  168.00000  17.24237             12.45172
1194.29167  1762.46250  240.00000  19.46138             15.73545
1189.46341  1879.47154  123.00000  16.50327             9.76793
1196.67586  836.30345   145.00000  16.33232             11.40618
1204.35625  1083.67500  160.00000  17.12232             12.08328
1206.76772  1734.27559  254.00000  23.87372             13.56694
1213.31561  309.98007   301.00000  25.81281             14.93482
1211.93407  1073.12088  182.00000  22.47965             10.42552
1213.14510  726.13725   255.00000  23.03765             14.26530
1217.57391  334.49565   230.00000  21.18501             13.90194
1220.62162  1747.47027  185.00000  16.31885             14.52215
1222.78882  1944.86957  161.00000  15.02914             13.69123
1227.04348  959.41897   253.00000  24.58894             13.50887
1225.66197  1073.97183  71.00000   10.14248             8.97377
1230.29245  1844.74528  106.00000  13.55975             10.43896
1234.08333  836.46875   96.00000   13.06685             9.68490
1238.79828  450.60515   233.00000  21.91988             13.67228
1232.58824  856.67647   34.00000   7.68981              5.65762
1242.43046  1228.45695  151.00000  15.89352             12.12098
1243.85475  351.64246   179.00000  15.94453             14.53999
1241.86923  1217.45385  130.00000  14.44318             12.05159
1243.77600  1079.06400  125.00000  14.33318             11.12095
1242.70588  1239.65686  102.00000  11.93650             10.91756
1245.15432  864.56790   162.00000  16.61008             12.49775
1248.14228  844.60163   246.00000  20.92966             15.12646
1248.16822  1516.80374  214.00000  18.68645             14.65714
1249.48500  1168.64500  200.00000  16.59156             15.45769
1251.28179  31.39863    291.00000  22.54977             16.56470
1250.03529  1212.82353  85.00000   12.16440             9.09187
1252.26761  873.46479   71.00000   12.48681             7.22564
1259.10700  956.18107   243.00000  23.46068             13.91803
1253.61413  1268.16848  184.00000  16.24540             14.50751
1259.30047  355.33333   213.00000  19.57149             14.02570
1254.67925  831.35849   53.00000   8.42283              7.97607
1259.75248  938.69307   101.00000  13.44092             9.61756
1262.50610  1287.62195  164.00000  15.03862             13.91758
1268.02250  704.84500   400.00000  35.10743             15.82389
1264.10769  971.14615   130.00000  13.58361             12.31152
1265.46988  1123.08434  166.00000  15.66290             13.61397
1268.67164  296.56716   268.00000  21.96939             15.65760
1264.49296  885.19718   71.00000   10.04811             9.11839
1269.06140  1058.50439  228.00000  21.81187             13.41533
1264.58000  855.44000   50.00000   8.61130              7.43543
1276.42748  428.41603   262.00000  33.41332             10.54807
1268.18657  998.05970   134.00000  16.63641             10.49184
1267.78151  1091.59664  119.00000  13.36404             11.38856
1268.73958  809.81250   96.00000   13.35635             9.26249
1268.75439  861.61404   57.00000   10.94581             6.68582
1271.11348  1246.55319  141.00000  16.09864             11.20857
1274.86093  1100.00000  151.00000  16.36736             11.93298
1276.23295  869.34659   176.00000  18.21466             12.35017
1273.41379  935.25862   58.00000   10.92014             6.82613
1273.65574  991.68852   61.00000   9.53699              8.29125
1275.66667  1034.13158  114.00000  14.19424             10.27918
1272.61290  1075.53226  62.00000   9.58334              8.41295
1278.06693  1741.99213  254.00000  19.66860             16.52780
1276.09639  924.74096   166.00000  15.47502             13.75781
1275.56667  880.33333   60.00000   10.76754             7.21649
1281.27751  1199.15789  209.00000  20.26984             13.47193
1278.53302  1231.94811  212.00000  18.12623             14.94588
1280.09596  1275.45455  198.00000  16.98544             14.96128
1289.39739  843.13681   307.00000  27.19856             15.45252
1281.63492  973.55556   63.00000   10.32877             7.87348
1286.94981  1001.69498  259.00000  20.90071             16.55394
1283.50000  816.40000   80.00000   10.89667             9.43941
1291.27372  735.73358   274.00000  22.69593             15.39902
1290.38068  1077.76136  176.00000  17.51103             12.82921
1290.01990  399.30348   201.00000  17.78281             14.40782
1290.04511  1094.67669  133.00000  15.55313             11.04486
1292.34272  1027.19249  213.00000  17.11414             15.90096
1293.88608  953.70886   158.00000  17.43947             11.78380
1295.92442  854.94767   172.00000  20.09914             11.07190
1304.99304  925.31090   431.00000  29.37484             19.67481
1301.13014  804.47945   146.00000  16.16902             11.51224
1303.10286  411.23429   175.00000  18.27069             12.20926
1304.75556  947.87778   90.00000   12.80252             9.14393
1310.24206  298.49206   252.00000  22.84521             14.09995
1306.97126  1095.22414  174.00000  15.73888             14.40703
1305.68182  792.09091   66.00000   12.62857             6.71344
1309.55328  736.01230   244.00000  20.28802             15.39920
1308.32143  1741.36905  168.00000  15.30178             14.15306
1310.13684  654.90526   190.00000  21.45356             11.31820
1311.67857  1271.61735  196.00000  19.84030             12.62647
1314.46154  971.15035   286.00000  24.98503             14.88250
1314.45665  1034.35260  173.00000  16.47727             13.48025
1315.39130  1067.05590  161.00000  15.38877             13.36687
1321.59783  1507.88043  276.00000  22.60969             15.72084
1316.56522  1165.37267  161.00000  20.05532             10.41693
1319.71429  1257.79699  133.00000  18.94886             9.17652
1321.88889  776.06349   63.00000   9.61595              8.30959
1329.52294  633.27294   436.00000  30.75560             18.82154
1326.77436  1216.75385  195.00000  17.53040             14.35907
1326.36872  1014.77095  179.00000  18.10730             12.89816
1329.03763  1250.47312  186.00000  19.60134             12.59674
1331.25993  1746.45487  277.00000  22.15876             16.07446
1331.51389  417.20833   216.00000  19.94862             13.88656
1329.54348  769.60870   138.00000  15.92630             11.47349
1326.14557  1166.96203  158.00000  21.21031             9.60426
1333.80180  1097.92342  222.00000  24.16068             11.93256
1334.88364  1315.64727  275.00000  27.16364             13.95481
1342.14643  999.97500   280.00000  23.01037             16.17400
1341.17576  1169.82424  165.00000  16.46903             12.78164
1345.51082  287.22944   231.00000  20.24554             14.58433
1347.13514  1322.84459  148.00000  15.01939             12.75163
1353.28936  1158.60000  235.00000  19.04491             15.97325
1352.87097  1175.95699  186.00000  19.80796             12.18294
1357.02632  1115.57519  266.00000  24.14461             14.05481
1359.30631  1316.68018  222.00000  23.22234             12.28195
1359.83039  748.37456   283.00000  21.49269             16.88986
1359.65865  1752.39423  208.00000  20.26922             13.13686
1365.50949  663.57911   316.00000  28.96600             14.08684
1370.99160  935.23529   238.00000  30.95167             10.43095
1363.82642  1195.80755  265.00000  24.41476             14.28258
1373.97414  1251.80172  116.00000  14.51391             10.22589
1373.97143  1817.10714  140.00000  14.94236             12.13085
1378.55603  1208.14224  232.00000  20.34246             14.61046
1381.60150  1313.29323  266.00000  21.74062             16.15154
1385.80435  404.67754   276.00000  26.69841             13.74688
1387.11483  1257.41148  209.00000  25.56139             11.48502
1378.78125  756.12500   32.00000   7.40877              5.53123
1383.24365  1300.02538  197.00000  24.52289             10.55142
1385.47283  269.41848   184.00000  16.24435             14.42230
1386.51196  1171.23923  209.00000  19.61632             13.62746
1385.43284  664.34328   67.00000   10.86299             7.84032
1390.27570  1218.92523  214.00000  20.83507             13.56589
1399.61842  951.18421   228.00000  30.03893             9.93226
1404.72876  1515.29085  306.00000  40.01898             10.29895
1393.71930  778.57895   57.00000   8.70516              8.33404
1401.75135  940.00541   185.00000  22.53135             10.63484
1406.56584  1763.57295  281.00000  21.11385             17.10178
1406.38710  1272.12258  155.00000  18.23321             10.88040
1409.32418  1210.96703  182.00000  21.75206             10.90849
1410.90310  412.09690   258.00000  21.92516             15.15535
1408.22000  791.72800   250.00000  19.85685             16.12264
1410.48077  1195.46154  156.00000  17.43376             11.95005
1411.75664  257.15929   226.00000  18.61093             15.58181
1412.49383  1182.22840  162.00000  17.46851             12.03867
1418.17623  1360.55738  244.00000  22.80937             13.85060
1423.86905  1713.68452  168.00000  15.97141             13.51893
1426.56742  1264.16292  178.00000  18.74829             12.86593
1427.98515  428.23267   202.00000  19.81942             13.04918
1433.31790  968.54012   324.00000  23.58659             18.05493
1434.87330  787.92760   221.00000  18.20750             15.54622
1437.13656  253.58150   227.00000  18.87452             15.38407
1437.95690  765.04741   232.00000  17.63226             16.76624
1436.91071  843.48214   56.00000   11.15221             6.48591
1448.39085  1382.79225  284.00000  31.06179             11.86909
1439.41026  1708.78846  156.00000  16.96666             11.76285
1447.13504  595.54745   274.00000  22.36010             15.72358
1451.58874  1091.61604  586.00000  43.30106             18.06419
1452.32836  632.12239   335.00000  25.32203             17.26165
1455.76256  1127.64840  219.00000  20.66613             13.97662
1459.05901  1534.87267  322.00000  30.47949             13.51796
1458.50000  861.93750   80.00000   12.00393             8.62805
1465.84880  942.54983   291.00000  24.31183             15.81574
1464.01596  498.00000   188.00000  16.95205             14.34033
1464.41117  284.08122   197.00000  19.42173             13.31867
1465.18143  656.02532   237.00000  21.11660             14.36356
1468.76442  415.48558   208.00000  22.49967             12.52186
1468.24510  525.44608   204.00000  19.06561             13.72434
1468.91981  1002.00000  212.00000  20.03489             13.59003
1473.61255  453.68266   271.00000  23.44728             14.83033
1471.64286  487.83929   112.00000  15.23778             10.09592
1470.71942  1248.60432  139.00000  13.79045             13.03073
1477.82331  1162.97368  266.00000  21.60744             15.91633
1482.28788  263.83838   198.00000  20.90463             12.17217
1480.09043  1255.67553  188.00000  22.98133             10.44136
1484.46311  375.97951   244.00000  18.79500             16.62010
1484.87324  705.94836   213.00000  20.18430             13.50060
1483.95122  356.26016   123.00000  13.83910             11.30835
1489.03435  1225.50000  262.00000  22.79923             15.61050
1491.26496  1184.36752  234.00000  29.04397             11.45490
1489.45098  501.23529   255.00000  23.24373             14.30305
1492.36634  345.51485   202.00000  18.46747             13.95217
1498.23099  1416.41972  355.00000  33.14893             14.99183
1493.13115  461.87705   244.00000  22.43895             14.09951
1492.93810  584.06190   210.00000  20.65454             13.34418
1493.86628  756.88372   172.00000  18.70993             11.78267
1499.33333  646.72083   240.00000  24.08403             12.89191
1499.93204  263.50485   206.00000  20.32170             13.43387
1502.29927  968.88321   274.00000  20.74098             17.00622
1501.80788  1575.11330  203.00000  21.64239             12.17658
1505.91364  323.27727   220.00000  21.94528             12.84738
1505.38209  626.70448   335.00000  28.58913             14.95676
1506.79452  373.04110   219.00000  18.92012             14.92424
1506.51500  394.53500   200.00000  21.17756             12.13128
1507.08949  486.29961   257.00000  19.96627             16.67361
1505.33333  758.34884   129.00000  13.67391             12.08998
1512.24715  833.38783   263.00000  24.45155             14.31370
1515.63780  1024.77559  254.00000  25.25303             13.25023
1515.55224  432.89925   268.00000  21.38419             16.27203
1512.58696  463.40217   184.00000  18.44392             12.72724
1513.46154  798.56643   143.00000  14.09974             13.00611
1517.27465  497.49296   142.00000  15.20473             11.88691
1519.23567  1203.56051  157.00000  17.37219             11.75379
1520.83981  388.94175   206.00000  17.18366             15.28324
1525.46018  531.99410   339.00000  29.64774             15.13695
1527.19617  1055.90909  209.00000  23.97541             11.29894
1531.37919  269.02349   298.00000  21.81304             17.41564
1530.47887  27.09859    142.00000  16.01935             11.49431
1529.93264  726.12953   193.00000  17.83041             14.00203
1531.25902  1006.54098  305.00000  24.10973             16.17225
1531.79444  472.80556   180.00000  15.75707             14.94993
1533.28387  696.62258   310.00000  32.93365             12.31679
1535.81899  821.52819   337.00000  26.16318             16.68619
1536.16964  1159.87500  224.00000  27.08710             10.77065
1538.18537  286.82439   205.00000  17.65953             14.81711
1536.47442  371.08372   215.00000  20.80729             13.35992
1538.45714  1046.83333  210.00000  18.38199             14.61734
1538.00000  416.47126   87.00000   11.75751             9.51227
1540.35294  466.91176   68.00000   10.99465             8.07684
1541.25862  509.76293   232.00000  28.53921             10.70735
1547.32296  1065.55642  257.00000  23.40384             14.63338
1544.00000  1562.34169  319.00000  32.34025             12.94560
1544.86747  478.50602   166.00000  16.59473             12.76085
1544.79870  871.07143   154.00000  16.03122             12.43100
1549.95238  882.73593   231.00000  22.93829             13.32344
1548.06931  1444.32178  202.00000  19.65614             13.40688
1546.65926  432.29630   135.00000  14.95833             11.52424
1548.66825  1090.25592  211.00000  17.31116             15.65741
1549.59394  547.06061   165.00000  15.70578             13.49976
1551.16667  339.57724   246.00000  26.18298             12.36804
1551.52000  393.21714   175.00000  17.52773             12.73266
1552.23750  769.55000   240.00000  19.04181             16.25219
1554.58333  290.18981   216.00000  24.26322             11.50272
1557.54867  577.27434   339.00000  23.12845             19.45537
1557.25683  1079.36066  183.00000  22.64765             10.44015
1554.23387  526.62903   124.00000  13.54389             11.85676
1556.81481  416.03704   108.00000  12.37204             11.14844
1559.20435  618.92174   230.00000  21.34180             13.79747
1561.12157  955.21176   255.00000  24.46070             13.42396
1556.01639  1130.80328  61.00000   9.73791              8.08310
1558.26562  443.51562   128.00000  14.83660             11.01101
1558.50273  1487.24590  183.00000  20.70680             11.35077
1566.79464  497.29018   224.00000  23.64885             12.08582
1563.38298  1124.50638  235.00000  27.46430             10.98911
1561.81461  1457.88202  178.00000  18.17574             12.50681
1565.40343  248.42918   233.00000  25.15652             11.98361
1567.82609  813.62112   322.00000  25.61002             16.27800
1565.05426  778.64341   129.00000  16.32524             10.11839
1565.86740  376.42541   181.00000  19.68489             11.81636
1566.84000  457.84000   150.00000  19.76206             9.70508
1565.26042  356.15625   96.00000   13.00698             9.48733
1569.48756  482.76119   201.00000  17.50296             14.63911
1569.56716  642.06965   201.00000  18.94972             13.73894
1569.34862  722.98165   218.00000  20.78422             13.57724
1570.87158  984.73770   366.00000  29.50438             16.34987
1570.24064  682.69519   187.00000  17.99239             13.24471
1572.15865  1033.49519  208.00000  20.63987             13.69925
1570.22388  1231.73134  67.00000   10.12019             8.46315
1575.73052  1352.41558  308.00000  22.69510             17.73454
1575.63609  1216.50153  327.00000  25.63393             16.81996
1573.69912  1464.61947  113.00000  14.11533             10.23101
1577.45109  610.08696   184.00000  18.46234             12.89523
1576.00000  701.90717   237.00000  23.67865             13.23059
1576.34343  1125.53535  198.00000  19.13242             13.27879
1578.28070  417.67105   228.00000  23.51098             12.40669
1580.88182  1279.59394  330.00000  24.27748             17.42681
1579.91498  175.97166   247.00000  20.89926             15.38334
1577.45312  376.34375   128.00000  15.00253             10.87421
1580.57436  1046.45128  195.00000  17.57640             14.62524
1579.48485  357.72727   132.00000  14.23701             11.80107
1582.71958  233.48677   189.00000  18.10631             13.36113
1582.23585  255.24528   106.00000  14.78325             9.15171
1586.94419  59.57209    215.00000  18.86195             14.58195
1585.18436  304.60335   179.00000  19.08774             11.98762
1585.74597  860.97177   248.00000  25.66408             12.40916
1585.07051  1095.38462  156.00000  17.14239             11.61783
1585.11340  1337.38144  97.00000   12.67214             9.77356
1586.39891  1507.34973  183.00000  16.62999             14.03316
1590.14595  316.70270   185.00000  22.27469             10.70422
1591.95397  266.69456   239.00000  19.03278             16.02119
1589.82524  1474.63107  103.00000  11.86686             11.07987
1591.49359  534.59615   156.00000  15.11775             13.17427
1597.61411  1092.67220  241.00000  34.44366             9.23490
1591.06452  388.90860   186.00000  22.26074             11.03666
1592.59016  1110.40437  183.00000  20.64845             11.42087
1598.33221  463.58054   298.00000  22.21403             17.43856
1598.95263  522.02105   190.00000  16.43154             14.75211
1601.01754  1446.99123  228.00000  19.91981             14.87145
1601.32487  365.44670   197.00000  17.92381             14.26749
1607.32997  706.81145   297.00000  26.59319             14.70838
1603.90840  282.77099   131.00000  15.47233             10.92934
1605.16883  428.72727   231.00000  26.19945             11.66985
1606.00000  543.82993   147.00000  15.82400             11.94184
1611.54397  924.50163   307.00000  31.02494             13.05472
1605.25581  293.34884   86.00000   11.44371             9.58686
1607.94737  1039.85380  171.00000  16.14954             13.52317
1607.46040  1214.47030  202.00000  21.23020             12.73694
1609.57604  595.60829   217.00000  18.57405             15.02981
1607.43151  350.33562   146.00000  15.41845             12.06874
1608.15528  377.45963   161.00000  15.17771             13.54112
1610.65327  644.96482   199.00000  17.18663             14.78296
1609.37306  1120.00518  193.00000  19.85142             12.43281
1611.37908  1186.53595  153.00000  17.31658             11.55432
1613.51546  392.60825   194.00000  18.29185             14.06833
1612.87629  783.87629   194.00000  21.22152             11.92945
1611.59585  967.23316   193.00000  23.25294             10.79168
1616.36216  811.70811   185.00000  16.96290             13.94345
1619.52582  428.99061   213.00000  18.69035             14.76105
1622.76718  570.24046   262.00000  20.60361             16.47634
1621.30542  517.74877   203.00000  19.63439             13.28165
1621.27941  685.57353   204.00000  18.04932             14.48001
1623.45000  746.63182   220.00000  17.29299             16.29216
1621.27632  1419.50658  152.00000  17.11292             11.51792
1622.50388  826.55814   129.00000  13.80921             12.29402
1623.53670  1272.28899  218.00000  19.36358             14.58498
1626.39512  307.90244   205.00000  19.74858             13.27558
1626.38696  467.44348   230.00000  18.07687             16.34830
1625.10471  986.56545   191.00000  17.77826             13.81340
1626.45581  1223.36279  215.00000  18.73217             14.64466
1627.10849  776.72170   212.00000  18.32218             14.92883
1626.52294  228.27523   109.00000  14.57506             9.62977
1628.83505  350.57732   194.00000  17.70381             14.28368
1628.60448  889.49254   134.00000  14.14604             12.08727
1631.12329  397.90411   146.00000  15.11859             12.32759
1632.69663  448.92135   178.00000  17.79293             12.90404
1634.29811  594.94340   265.00000  19.43179             17.46447
1630.96471  820.22353   85.00000   12.48032             8.72245
1635.23077  549.77564   312.00000  26.11586             15.29863
1634.00000  480.55862   145.00000  14.68442             12.72558
1635.24342  384.63816   152.00000  15.72596             12.58941
1637.70833  922.56667   120.00000  13.14441             11.65300
1644.45283  1049.76604  265.00000  25.93617             13.52524
1642.47605  1090.54491  334.00000  31.35354             13.78549
1641.06452  1308.03226  124.00000  15.59194             10.29415
1638.75000  294.61111   36.00000   7.71717              5.93699
1643.63793  694.18103   232.00000  18.80522             15.77920
1642.45455  1345.05303  132.00000  16.18235             10.45012
1645.27322  310.24044   183.00000  16.65866             14.00618
1648.23588  723.91694   301.00000  22.33488             17.90432
1645.19457  809.01810   221.00000  21.50985             13.14281
1644.53017  1240.28879  232.00000  25.85177             11.67043
1645.70238  1213.26190  168.00000  17.94673             12.16435
1647.53297  1401.26374  182.00000  16.03038             14.57854
1648.68421  1655.12573  342.00000  25.80016             16.94747
1647.87795  1294.56299  254.00000  29.37048             11.32356
1649.97143  516.01143   175.00000  15.75855             14.35136
1650.75556  970.02222   180.00000  17.91873             12.83397
1649.75072  1171.75072  349.00000  34.40299             13.10149
1651.77895  1125.10000  190.00000  18.36575             13.41913
1653.31250  676.95139   144.00000  15.37244             12.10505
1655.03101  445.55039   258.00000  20.08658             16.70842
1657.51579  905.01579   190.00000  19.62180             12.48275
1654.92086  773.60432   139.00000  15.93295             11.22161
1655.68468  531.70270   111.00000  13.96193             10.29152
1654.88158  1214.73684  76.00000   10.67906             9.18775
1659.56250  241.83125   160.00000  17.87283             11.47797
1659.89529  1371.89005  191.00000  19.77659             12.35998
1662.95968  398.16935   248.00000  21.09910             15.06185
1662.20614  1329.35526  228.00000  20.24058             14.71025
1663.99000  556.40000   200.00000  17.06875             15.05776
1664.12019  605.88462   208.00000  18.42840             14.54000
1664.76493  1590.29851  268.00000  21.83704             15.78771
1663.24457  798.20652   184.00000  17.41844             13.49726
1665.81413  744.12268   269.00000  21.29079             16.20426
1665.48466  1187.75460  163.00000  15.84188             13.12961
1668.63203  538.84848   231.00000  18.33872             16.06042
1667.37963  774.28241   216.00000  19.53350             14.26109
1668.11732  1618.75419  179.00000  15.63825             14.63985
1668.65926  1132.37037  135.00000  17.12469             10.04563
1670.62121  420.84848   132.00000  16.51954             10.74579
1669.68387  649.49032   155.00000  15.22048             13.05081
1669.53125  1046.48125  160.00000  15.12976             13.58194
1671.00455  1299.39545  220.00000  20.19038             14.01398
1676.21219  672.24831   443.00000  25.26615             23.72577
1673.68627  1151.28922  204.00000  16.94175             15.44203
1676.13441  197.25806   186.00000  18.19133             13.09767
1675.64516  858.74731   186.00000  16.09606             14.79280
1674.60432  1377.97122  139.00000  15.78219             11.24872
1676.33133  1324.10843  166.00000  18.99612             11.53718
1682.56198  1401.53306  242.00000  26.81812             11.53286
1675.45833  348.53125   96.00000   12.01979             10.17257
1679.53571  902.81429   140.00000  21.54170             8.82595
1677.30769  1099.01399  143.00000  14.36506             12.68505
1681.38323  894.28144   167.00000  19.24598             11.30996
1680.55488  911.95732   164.00000  17.11339             12.45209
1686.11732  602.72067   358.00000  23.16430             20.78575
1682.72727  228.58182   110.00000  14.13244             10.04330
1685.95122  1119.85854  205.00000  17.95534             14.62303
1681.54412  637.14706   68.00000   9.85463              8.84725
1685.90722  1438.83505  194.00000  17.15442             14.47636
1687.11386  806.01980   202.00000  16.74600             15.58850
1686.67763  835.89474   152.00000  18.05049             11.12715
1685.82000  1054.31333  150.00000  13.96435             13.70260
1687.02642  1175.18113  265.00000  23.13509             14.89654
1688.89474  1540.23392  171.00000  17.20409             13.55415
1689.02162  720.26486   185.00000  15.69480             15.04668
1693.59524  845.63492   252.00000  23.01111             14.09115
1686.00000  1043.50000  50.00000   8.68863              7.30121
1689.68874  1334.67550  151.00000  15.02194             12.88077
1691.50785  1510.41361  191.00000  18.81999             12.98859
1691.51613  1269.67742  217.00000  17.75310             15.62955
1691.49282  548.79904   209.00000  22.16392             12.04453
1695.29042  875.65569   334.00000  24.96032             18.66533
1696.09283  244.04219   237.00000  19.67758             15.41555
1696.55122  1306.77073  205.00000  20.30041             13.72857
1697.92056  645.64486   214.00000  18.32466             15.11433
1698.27136  399.84422   199.00000  16.99560             14.99062
1698.76042  445.34896   192.00000  18.62362             13.18626
1702.47737  356.37860   243.00000  24.02650             13.04494
1698.39370  1258.00000  127.00000  14.07415             11.47976
1701.86893  311.80097   206.00000  18.33470             14.30384
1703.52143  508.37857   140.00000  16.57711             10.76166
1703.39648  1293.69604  227.00000  20.39324             14.60429
1708.81356  736.15819   354.00000  32.70371             14.93251
1705.54911  940.93304   224.00000  21.43230             13.68693
1707.21687  1456.40161  249.00000  19.47202             16.30917
1706.27778  859.38889   162.00000  15.27646             13.61236
1708.62054  999.80804   224.00000  17.96426             15.95414
1709.48454  1344.08763  194.00000  17.84314             13.87316
1710.59006  1218.53416  161.00000  17.38662             11.85070
1711.18605  1268.63566  258.00000  18.56571             17.82041
1710.01531  1324.05612  196.00000  17.45741             14.32569
1711.63235  286.32353   204.00000  18.26437             14.33721
1711.00568  486.35795   176.00000  15.74599             14.28331
1713.31633  1059.88776  196.00000  16.85670             15.23450
1711.27338  1182.12950  139.00000  13.45157             13.18086
1713.41786  1373.64286  280.00000  24.33460             14.85814
1712.93889  778.58889   180.00000  16.89994             13.69125
1720.89557  1150.64241  316.00000  27.43445             15.87184
1714.19565  1170.04348  138.00000  15.52133             11.43397
1718.25203  950.14228   246.00000  21.29139             14.76217
1713.37634  1229.97849  93.00000   11.80808             10.10349
1717.65347  160.66832   202.00000  17.87987             14.43987
1717.48370  438.78261   184.00000  18.24721             12.86116
1722.34906  1100.68868  318.00000  28.39025             14.47281
1719.03540  1469.65044  226.00000  18.59339             15.50538
1719.48899  136.65639   227.00000  19.44033             14.91495
1722.62230  706.45324   278.00000  21.16895             16.89591
1717.88095  239.51190   84.00000   11.70570             9.13835
1723.76331  566.46154   169.00000  17.80345             12.20966
1723.21765  1052.71765  170.00000  18.63477             12.04623
1724.19048  725.89881   168.00000  15.51848             13.80317
1728.72075  908.45660   265.00000  25.04677             13.81443
1724.76695  1348.73729  236.00000  20.43367             14.73668
1728.88306  766.75000   248.00000  24.07236             13.89870
1728.90871  1215.07054  241.00000  22.63407             14.29333
1725.42336  396.45985   137.00000  16.81920             10.45123
1729.69784  516.98561   278.00000  23.91758             15.43086
1728.86224  587.47959   196.00000  17.84184             14.05714
1728.27869  425.19672   122.00000  13.31879             11.73032
1732.99517  819.09662   207.00000  17.87354             14.84738
1733.94306  1505.48043  281.00000  25.78091             13.94289
1732.26772  1603.91339  127.00000  16.69852             9.82138
1732.84615  365.08974   78.00000   10.52712             9.50333
1732.98276  547.20690   58.00000   9.50638              7.77093
1738.98077  577.79487   156.00000  18.40438             11.03768
1740.75200  1457.43200  250.00000  23.76977             13.77722
1737.53982  661.43363   113.00000  12.18008             11.80413
1742.35656  852.51639   244.00000  23.05731             13.60667
1738.89385  1295.51397  179.00000  16.09380             14.20684
1741.04225  1312.05164  213.00000  18.35233             15.21871
1743.37295  974.22131   244.00000  18.86127             16.50030
1741.14074  625.45185   135.00000  14.41357             11.99932
1744.55656  359.18552   221.00000  18.50077             15.33980
1745.20297  1227.38614  202.00000  19.05178             13.57942
1746.45965  1253.18246  285.00000  24.49902             15.43602
1746.31325  482.02410   166.00000  15.58418             13.80718
1748.29944  654.96610   177.00000  16.43980             13.73550
1750.72556  695.81579   266.00000  21.54025             15.82846
1751.67822  301.08911   202.00000  17.81874             14.48782
1752.99571  1215.47639  233.00000  18.95189             15.74614
1753.25333  836.15556   225.00000  18.16119             15.82998
1754.34646  863.99606   254.00000  18.93664             17.19145
1758.03448  1196.20000  290.00000  27.99297             13.50391
1753.70892  737.18779   213.00000  17.08041             15.95921
1756.31905  614.03333   210.00000  19.24294             14.04299
1754.76761  916.92254   142.00000  16.47377             11.11748
1754.42616  410.22363   237.00000  21.15632             14.26259
1757.57346  540.33175   211.00000  18.67281             14.46224
1756.78676  514.66176   136.00000  14.37918             12.07716
1758.60656  1384.53552  183.00000  20.18333             11.87157
1758.57377  283.08743   183.00000  16.22683             14.42446
1757.84146  330.68293   164.00000  15.84715             13.28592
1759.42135  226.23596   178.00000  15.69559             14.55506
1760.12745  762.94118   204.00000  17.37194             14.94625
1764.27320  1394.73711  194.00000  18.06041             14.11938
1765.33005  104.53695   203.00000  18.33767             14.20728
1768.86864  1603.83475  236.00000  19.21234             15.72444
1768.80159  1708.93651  252.00000  19.38992             16.62576
1768.67136  1750.77934  213.00000  17.48649             15.59815
1768.35798  1293.47082  257.00000  20.78018             16.01371
1774.11508  1002.65476  252.00000  21.67248             14.87922
1771.56067  1266.64017  239.00000  21.80831             13.99012
1772.43841  1646.53623  276.00000  19.64677             18.22273
1773.35495  791.16382   293.00000  26.05055             14.66400
1773.04487  560.44231   156.00000  15.53870             12.83032
1774.98893  978.56458   271.00000  22.03571             15.82413
1774.35256  1677.41026  156.00000  16.93467             11.79838
1775.74419  1184.34302  172.00000  17.41930             12.62560
1774.56429  415.40714   140.00000  14.87714             12.03606
1775.56693  1568.95276  127.00000  14.84193             11.73139
1783.22449  1382.82041  245.00000  23.48755             13.46774
1777.87912  1419.61538  91.00000   11.56700             9.99558
1784.26852  911.32407   324.00000  21.23703             19.72856
1785.29831  1232.43729  295.00000  23.44566             16.57160
1784.10088  652.79386   228.00000  23.17621             12.56503
1780.72840  1134.82716  81.00000   12.33135             8.43028
1784.12558  546.11628   215.00000  19.41973             14.22234
1785.21774  1662.74194  124.00000  13.95362             11.53905
1788.83221  443.23490   149.00000  15.57515             12.21951
1785.87368  1247.38947  95.00000   12.69341             9.68043
1791.96491  411.70614   228.00000  21.40236             13.73857
1789.81778  947.35111   225.00000  19.31409             15.03064
1790.49180  345.51639   244.00000  25.56786             12.42092
1794.86603  1199.15311  209.00000  18.35378             15.31825
1791.87654  427.41975   81.00000   11.55460             9.15820
1797.76892  522.76096   251.00000  22.73947             14.26110
1795.68649  65.07027    185.00000  17.65153             13.39076
1800.71591  1015.78409  264.00000  21.34561             16.06881
1796.83173  1261.13942  208.00000  19.35542             13.76128
1799.26953  677.76562   256.00000  28.76379             11.50177
1802.80986  700.22183   284.00000  22.06825             16.65959
1802.27473  989.94505   182.00000  16.65662             14.19426
1804.84167  1240.44583  240.00000  18.98533             16.15888
1803.84768  1337.00662  151.00000  15.72702             12.26734
1805.49282  1383.13876  209.00000  18.58367             14.41967
1805.53571  563.02143   140.00000  14.08075             12.68933
1807.35795  505.91477   176.00000  17.71732             13.01479
1810.17014  622.25000   288.00000  24.36862             15.71929
1808.43750  1284.18269  208.00000  17.64043             15.04057
1807.61850  1923.01734  173.00000  16.50681             13.58556
1810.41778  805.68889   225.00000  19.05748             15.05575
1810.88701  974.55932   177.00000  16.33061             13.83395
1815.43750  931.95089   224.00000  24.31965             12.06337
1815.04184  1160.02092  239.00000  20.66171             14.80827
1817.01124  1329.71348  178.00000  15.36058             14.77760
1818.65169  1687.40449  178.00000  19.29411             11.78023
1819.73359  291.08108   259.00000  19.76538             16.75062
1816.86364  584.66234   154.00000  15.18323             12.98840
1821.69010  1256.29712  313.00000  21.87156             18.51522
1821.59070  1188.46047  215.00000  17.78678             15.48996
1822.98324  1432.81006  179.00000  20.92349             11.27687
1823.07895  748.46053   228.00000  18.60497             15.92230
1822.50439  1294.04825  228.00000  18.67749             15.81998
1820.54867  1620.51327  113.00000  13.11429             11.08341
1823.51136  338.60227   176.00000  17.10973             13.18389
1829.10323  919.61935   155.00000  22.26072             9.32482
1826.89450  769.16514   218.00000  18.06022             15.44102
1830.79399  966.85837   233.00000  17.45549             17.10624
1832.05419  568.59113   203.00000  16.54303             15.71484
1834.81227  983.18412   277.00000  21.30327             16.63527
1832.36719  1335.10938  256.00000  18.55449             17.64957
1832.74286  1173.67143  210.00000  22.07231             12.27655
1830.11538  382.16667   78.00000   11.61841             8.81410
1835.78926  1039.68182  242.00000  18.73325             16.47008
1832.80000  1696.26000  150.00000  16.73989             11.57358
1835.83420  887.40415   193.00000  18.00716             13.69335
1837.04891  52.98913    184.00000  20.20735             11.65692
1840.17327  401.02970   202.00000  17.11954             15.22020
1840.87379  341.00000   206.00000  17.17358             15.39000
1844.81696  788.37500   224.00000  18.67288             15.35886
1844.04317  587.69784   139.00000  13.69578             13.16414
1848.16667  952.20513   234.00000  22.69465             13.26158
1846.91667  926.98958   192.00000  19.65683             12.46981
1854.20968  841.58710   310.00000  25.91593             15.37083
1853.44747  1211.85992  257.00000  22.00132             14.93189
1854.78846  1080.10897  156.00000  15.70858             12.73501
1856.36620  1067.46479  213.00000  18.58390             14.62855
1863.85978  1017.09963  271.00000  23.76315             14.71719
1859.71784  864.32365   241.00000  23.07309             13.31591
1863.58400  1356.31200  250.00000  19.88004             16.07014
1865.04739  1434.16114  211.00000  20.02063             13.50769
1870.51799  975.99281   278.00000  24.09247             14.88203
1870.09694  626.35204   196.00000  17.51895             14.36030
1869.80303  1110.06566  198.00000  16.54681             15.25865
1874.40639  1028.41096  219.00000  19.39334             14.69558
1879.85930  311.91457   199.00000  18.82744             14.06620
1879.70652  857.82065   184.00000  16.30274             14.49069
1882.01600  639.67200   250.00000  18.18081             17.54961
1883.21774  432.92742   248.00000  20.92599             15.37391
1884.63243  919.58919   185.00000  23.11346             10.32542
1894.05932  1249.12712  236.00000  19.05323             15.87392
1894.84977  1231.95775  213.00000  18.71546             14.56180
1894.15663  1035.26506  166.00000  18.85726             11.56211
1897.92245  1181.01224  245.00000  24.25594             12.96367
1898.08122  1046.18274  197.00000  18.36511             13.99462
1899.06250  682.75833   240.00000  19.73777             15.62125
1900.32906  891.12821   234.00000  19.50820             15.40337
1897.81250  1575.66875  160.00000  14.85586             14.00304
1903.67954  537.54826   259.00000  23.02375             14.43648
1902.34426  556.16393   122.00000  12.98140             11.97442
1908.76056  1364.22066  213.00000  17.60471             15.45924
1910.11594  1283.14976  207.00000  18.70312             14.24140
1915.73494  732.07631   249.00000  20.49441             15.72348
1920.88259  969.36437   247.00000  19.97639             15.86659
1925.39033  1002.68030  269.00000  24.61879             14.25987
1922.21023  1495.06818  176.00000  15.15137             14.81155
1929.19522  1281.15936  251.00000  20.02905             16.08309
1932.85202  1331.49776  223.00000  22.43362             12.89510
1935.63598  1355.07113  239.00000  20.53606             14.86685
1937.73279  963.24291   247.00000  29.40809             11.09076
1937.08901  920.43979   191.00000  19.12251             12.76565
1936.45161  946.19355   155.00000  15.95029             12.37674
1942.30544  771.64854   239.00000  21.02963             14.52429
1941.45455  1386.23529  187.00000  18.78493             14.07634
1949.61538  1452.61966  234.00000  18.34993             16.34250
1954.01779  1196.45196  281.00000  24.94291             14.41238
1949.64286  1322.50000  196.00000  16.87354             14.93449
1949.23913  914.32609   138.00000  14.16413             12.52506
1952.96667  1481.00833  120.00000  14.02304             11.05149
1958.39655  545.35862   290.00000  23.30566             15.87441
1959.22222  753.23704   135.00000  13.99231             12.32553
1964.52973  1438.16757  185.00000  19.98323             11.99151
1973.95926  1041.74444  270.00000  26.91695             13.10382
1974.03409  1345.32197  264.00000  23.29703             14.47867
1985.70815  1211.87554  233.00000  20.32275             14.67245
1992.47541  890.61749   183.00000  20.61741             11.37936
1998.71491  1329.49123  228.00000  20.65193             14.23560
2005.27545  816.18563   167.00000  17.15207             12.47341
2013.83333  1028.83333  222.00000  20.97508             13.49623
2017.20312  864.41146   192.00000  17.40290             14.13401
2030.52880  841.54974   191.00000  17.30945             14.11453
2031.95980  791.02513   199.00000  17.83592             14.37456
2035.20430  1031.77957  186.00000  19.62976             12.08844
2035.01648  527.12637   182.00000  18.86622             12.34768
2036.95062  1055.69136  162.00000  16.37435             12.72488