# Filename: Nuclei_ctrl_pfa_002.npz
# Voxel size (nm): (108, 108)
# Area quantity: voxels
# Num nuclei detected: 1354
Y           X           AREA       MAJOR_AXIS_LENGTH    MINOR_AXIS_LENGTH
156.75887   506.03546   141.00000  14.17302             12.72254
197.50549   604.61538   182.00000  17.40490             13.40735
201.87709   930.77095   179.00000  16.27471             14.40581
214.57692   915.61111   234.00000  18.23003             16.43499
218.77729   735.93886   229.00000  17.91917             16.33083
238.17143   771.95714   280.00000  20.90236             17.46402
246.06996   880.36214   243.00000  19.59161             15.95159
250.06224   638.23237   241.00000  18.64682             16.52612
255.73152   848.14397   257.00000  19.51064             16.87069
254.53691   425.16779   149.00000  15.38517             12.47623
263.33197   737.62295   244.00000  19.55305             16.37874
276.80882   463.33088   136.00000  15.05792             11.65101
291.97122   673.65108   278.00000  21.51095             16.53277
292.47590   642.78916   166.00000  15.56769             13.71873
302.24551   473.89820   167.00000  16.68596             12.88245
312.15612   844.93671   237.00000  20.34683             14.95534
325.55505   605.61009   218.00000  20.48370             13.79508
329.37500   886.92045   264.00000  21.86731             15.54124
327.18310   1250.28169  71.00000   10.27413             8.81194
333.31148   1222.44262  61.00000   9.17600              8.46397
336.36522   708.83913   230.00000  20.82484             14.15027
343.78261   530.36232   207.00000  19.79673             13.41626
348.94565   1204.51087  92.00000   12.26130             9.59407
352.28070   582.48538   171.00000  17.01618             13.17332
353.73248   936.64331   157.00000  15.44715             13.10569
357.56917   703.22134   253.00000  18.10419             17.97832
357.35200   987.86400   125.00000  13.45073             11.89687
361.81148   1023.43443  122.00000  13.52968             11.50262
363.30939   1121.58011  181.00000  16.33373             14.39672
366.73649   965.00000   148.00000  14.78083             12.78448
369.57542   863.40782   179.00000  16.28662             14.14192
375.21805   933.55639   133.00000  16.08030             10.63454
376.77876   1087.22124  113.00000  14.44417             10.00857
379.89313   1076.53435  131.00000  14.15711             11.84186
384.49032   950.61290   155.00000  15.65589             12.86370
384.76522   1108.52174  115.00000  15.75808             9.38141
387.91880   782.61111   234.00000  20.23370             14.79560
384.17949   1100.37179  78.00000   12.05906             8.26209
387.31667   939.98333   120.00000  14.45436             10.58911
385.67925   1227.41509  53.00000   8.61537              7.78088
391.44586   1345.20382  157.00000  16.27385             12.32074
397.32093   661.92093   215.00000  21.33649             12.91445
393.13386   1090.45669  127.00000  13.36935             12.14864
393.97826   700.73370   184.00000  19.14930             12.33893
398.20690   811.94138   290.00000  20.89027             17.86660
396.20536   1116.16071  112.00000  15.47508             9.32766
394.61765   1125.02941  102.00000  12.35238             10.68842
398.75556   1048.94815  135.00000  14.62534             11.80977
398.28358   978.81343   134.00000  14.49407             11.80010
399.07874   1011.15748  127.00000  13.04553             12.42407
399.04918   1139.01639  122.00000  13.60399             11.40908
404.62385   1033.76147  109.00000  12.61023             11.02502
408.36364   951.16746   209.00000  18.94836             14.25814
412.36257   864.77193   171.00000  18.07175             12.13266
416.86328   1001.88672  256.00000  21.61470             15.15917
418.23737   1155.84343  198.00000  20.06124             12.65431
423.95406   979.00707   283.00000  21.23778             17.08108
419.55072   1194.01449  69.00000   9.77244              9.01158
427.84049   902.63804   326.00000  26.21977             16.25209
425.13372   1116.00581  172.00000  16.87759             13.04286
425.92975   808.56198   242.00000  19.44211             16.11569
425.65417   1175.74167  240.00000  20.86687             14.68534
428.03401   1040.35374  147.00000  17.33427             10.94104
430.14762   1450.38095  210.00000  17.63161             15.28829
437.52399   655.87085   271.00000  19.16789             18.18819
434.37912   1475.84615  182.00000  20.19902             11.48923
436.72973   848.47297   148.00000  14.56838             12.98183
438.11679   993.62774   137.00000  14.63849             12.16590
440.46957   1101.08696  115.00000  13.89997             10.55723
439.79661   1525.35593  59.00000   10.26286             8.07917
444.81159   564.00725   138.00000  17.11942             10.62851
454.20952   819.03492   315.00000  30.71491             13.27125
445.38583   1149.86614  127.00000  13.69305             12.03951
455.72028   911.82867   286.00000  23.72339             16.08403
458.83333   871.13441   372.00000  27.22775             17.58611
453.89941   1104.26627  169.00000  16.57812             13.08822
454.35354   1188.53535  198.00000  17.85976             14.17135
454.72222   990.50000   180.00000  16.43525             14.04212
454.45856   1132.01657  181.00000  15.37988             15.04329
456.14545   1212.51818  220.00000  20.27507             13.89295
458.66372   1016.05310  113.00000  14.95872             9.62721
460.31613   1519.20645  155.00000  15.92471             12.46078
461.62201   635.52153   209.00000  18.19779             14.71782
462.93458   784.63084   214.00000  17.91327             15.35884
468.93125   806.00625   160.00000  24.14099             8.65658
461.95146   578.76699   103.00000  12.46260             10.57063
466.27451   1049.38235  204.00000  20.97148             12.44695
467.28511   682.08936   235.00000  21.59248             13.98161
470.22596   1186.39904  208.00000  17.10957             15.53822
470.21839   973.01149   174.00000  17.80900             12.45335
470.99500   1078.32500  200.00000  16.63470             15.33089
471.74172   1237.46358  151.00000  17.29063             11.21487
474.71429   916.91270   252.00000  22.84516             14.47836
475.63679   572.58019   212.00000  18.64274             14.50988
478.59910   857.49099   222.00000  19.50459             14.63144
483.96167   880.08014   287.00000  21.15418             17.50535
481.20264   1060.52423  227.00000  18.18303             16.05406
479.95238   1332.95238  147.00000  14.68931             12.75576
482.68391   1022.16667  174.00000  18.33731             12.39572
485.50943   1130.78302  212.00000  21.85425             12.41633
480.61017   991.83051   59.00000   10.04567             7.47812
488.36923   1141.16923  195.00000  22.72895             11.03730
482.46667   1363.60000  75.00000   9.91699              9.66276
488.47802   1158.94505  182.00000  16.69894             13.90988
487.72477   1007.97248  109.00000  12.52808             11.10035
491.08939   824.94972   179.00000  16.89072             13.54772
491.22826   910.92935   184.00000  21.37351             11.06103
493.38889   1231.98611  144.00000  16.75537             10.94182
495.37269   694.79336   271.00000  23.54553             14.74761
495.25543   653.64674   184.00000  15.71951             15.06319
493.34722   1206.81944  144.00000  15.76341             11.81138
495.37634   1257.10215  186.00000  17.43336             13.68658
495.91053   1090.65789  190.00000  17.55912             13.87132
501.44056   620.06643   286.00000  20.89697             17.53878
497.15278   993.56944   72.00000   10.71739             8.59057
505.37870   1181.55325  338.00000  28.16680             15.77528
505.40562   955.42570   249.00000  20.95116             15.33923
507.89916   875.47059   238.00000  21.11368             14.53314
503.38365   1041.61006  159.00000  15.27950             13.26036
504.03361   1214.37815  119.00000  12.93373             11.70904
507.84659   911.35227   176.00000  17.31400             13.09231
507.04734   986.44379   169.00000  19.95981             10.80565
510.49187   1083.65041  246.00000  20.36725             15.54116
505.81720   1278.34409  93.00000   16.41651             7.23673
515.02222   1313.42222  90.00000   12.01263             9.52382
513.86111   1627.62500  72.00000   10.35106             8.93602
519.33254   1266.18527  421.00000  33.15139             18.81140
522.33708   883.21910   178.00000  23.54226             10.04409
522.36866   766.43318   217.00000  20.74173             13.48135
523.08584   1210.76824  233.00000  19.75986             15.14861
520.46939   1382.74490  98.00000   13.88959             9.20862
523.87719   914.41520   171.00000  17.75565             12.42736
525.23121   1245.05780  173.00000  19.45455             11.59574
523.95210   1532.92216  167.00000  16.76795             12.72069
525.20856   960.30481   187.00000  16.93266             14.36428
525.93237   1011.16908  207.00000  20.75306             12.89749
527.68880   1154.17842  241.00000  18.18297             16.89807
530.72947   1045.41063  414.00000  26.80048             21.02197
532.02837   848.00000   141.00000  19.75019             9.17843
539.90452   976.06533   398.00000  29.86225             17.37358
537.42920   1105.94690  226.00000  18.37300             15.75160
538.13314   1185.71598  338.00000  25.97946             16.76259
534.89623   1235.96226  106.00000  15.18742             9.05829
535.52434   1316.56929  267.00000  26.54937             13.17257
533.63636   1388.66234  77.00000   10.72120             9.16085
540.28634   1587.16300  227.00000  17.76629             16.55682
541.02890   1019.63584  173.00000  15.72278             14.26423
545.34048   923.09286   420.00000  31.43904             18.17569
543.46032   1125.02778  252.00000  21.51338             15.15194
541.92432   1536.81081  185.00000  16.66474             14.13527
542.20874   845.42718   206.00000  21.07818             12.58818
543.13462   1234.50962  104.00000  16.39545             8.23535
542.84000   611.52000   50.00000   9.09944              7.16548
550.44304   1604.78481  237.00000  20.52888             15.00718
548.28859   663.55705   149.00000  15.36942             12.63027
549.63636   1101.78788  66.00000   9.49222              8.95282
556.93074   754.58442   231.00000  21.61492             13.76041
562.98551   1233.58551  345.00000  33.96981             13.18876
557.04072   834.42986   221.00000  18.97986             14.86238
559.50427   1249.55556  117.00000  17.16070             8.94183
555.60484   1271.36290  124.00000  14.75101             10.75214
560.13169   1312.67490  243.00000  21.53720             14.75477
563.37710   698.28620   297.00000  24.99530             15.58941
563.57090   1189.47761  268.00000  20.63457             16.66279
571.44954   1055.19878  327.00000  30.14410             14.11551
564.69822   1163.78107  169.00000  17.16094             12.63366
566.07471   1552.12644  174.00000  17.46546             13.13384
567.75494   631.55336   253.00000  22.84678             14.17585
571.53287   1104.28028  289.00000  23.07164             16.06140
571.08571   1291.88214  280.00000  24.49605             14.79009
566.79121   1583.12088  91.00000   12.32989             9.43274
569.00000   666.53005   183.00000  18.30445             12.77093
570.59596   1512.51515  99.00000   14.31564             8.90365
570.45455   1520.96970  99.00000   13.43951             9.39259
574.46713   1599.26644  289.00000  26.43589             14.01400
571.31875   930.45000   160.00000  15.19595             13.43568
571.75652   1479.34783  115.00000  14.56167             10.08635
577.57759   602.08621   348.00000  23.41827             18.99339
574.05435   1276.82609  92.00000   13.16698             8.89623
578.16532   1624.06855  248.00000  20.59939             15.41860
576.85593   1164.74576  118.00000  12.85417             12.04710
576.18750   1411.45536  112.00000  15.09727             9.85136
581.99505   1206.30693  202.00000  17.75111             14.74215
583.69474   574.16491   285.00000  21.89917             16.72277
586.80685   1016.26168  321.00000  25.67335             16.33669
581.30303   1735.87879  198.00000  16.80994             15.01529
582.39252   12.81308    107.00000  12.08249             11.32355
584.89944   1221.97207  179.00000  18.59457             12.30118
589.48163   1566.28163  245.00000  22.27677             14.08971
588.30256   1277.70769  195.00000  17.88697             14.02758
592.03137   1117.46275  255.00000  22.08219             15.24421
587.41772   1404.07595  79.00000   11.07546             9.14687
591.22283   959.10326   184.00000  21.97444             10.70484
594.69863   1034.67580  219.00000  19.10418             14.73186
600.06550   748.19214   229.00000  24.11574             12.28443
593.94048   847.36905   84.00000   11.53066             9.30174
595.67857   1249.22768  224.00000  19.80126             14.61650
597.74863   872.08197   183.00000  20.21048             11.65030
594.48780   1538.42683  82.00000   11.12441             9.35289
597.88776   1054.95918  196.00000  18.72114             13.40670
606.10473   404.04054   296.00000  27.96097             13.75790
600.00699   1701.62238  143.00000  16.12277             11.33029
604.99588   636.59259   243.00000  24.22812             12.82121
609.61364   1293.22443  352.00000  33.43928             13.82791
611.78641   1602.49515  206.00000  28.78151             10.26548
605.80858   1141.64026  303.00000  26.78105             14.83238
603.50526   1355.85263  95.00000   11.58308             10.61529
606.39910   910.45291   223.00000  25.57036             11.16622
606.32203   889.57627   118.00000  13.33869             11.30419
609.56757   965.16757   185.00000  19.41701             13.63593
608.78065   980.17419   155.00000  18.34055             11.06554
608.02410   1091.92169  166.00000  15.50824             13.65545
607.06977   1103.50000  86.00000   12.96002             8.43343
615.56311   838.05825   412.00000  32.25447             16.31835
615.95941   708.84871   271.00000  20.20776             17.18639
614.64216   1338.23039  204.00000  17.77588             14.77752
619.41038   752.86321   212.00000  24.54068             11.31567
616.94191   1382.26971  241.00000  20.54002             15.24332
621.32753   585.21254   287.00000  23.79375             15.49025
621.66753   781.05928   388.00000  24.85780             20.30024
618.04167   992.51667   120.00000  15.93127             9.83341
616.75845   1020.69565  207.00000  20.66103             12.79798
619.19689   1561.20725  193.00000  16.97196             14.69173
618.33108   959.35135   148.00000  18.68561             10.38112
616.90419   1077.23952  167.00000  22.86823             9.36056
623.97484   813.27044   159.00000  15.20480             13.51770
620.53448   1269.74138  58.00000   9.68121              7.60754
628.46597   1256.65445  191.00000  19.87082             12.53336
631.28155   1313.02913  103.00000  15.45608             8.50714
629.67347   1328.02041  49.00000   9.51378              6.57918
633.27333   1038.92000  150.00000  19.58800             9.91560
635.02212   713.06195   226.00000  20.84584             13.88197
634.09091   1128.97403  77.00000   10.99170             8.89626
640.10784   1086.73529  204.00000  18.10383             14.53201
641.16878   826.33333   237.00000  18.40950             16.54314
640.81690   847.74648   142.00000  14.66112             12.38102
637.72414   1105.34483  29.00000   6.53899              5.60026
640.69364   1301.65318  173.00000  18.54420             11.92528
641.61935   1412.09032  155.00000  19.97836             9.97886
645.53158   909.99474   190.00000  20.12892             12.88286
645.68511   1320.35745  235.00000  22.25742             13.93136
648.33333   645.92014   288.00000  21.27588             17.65602
646.33186   981.59292   226.00000  21.75221             13.28061
649.58000   583.41000   300.00000  25.22633             15.25910
646.86517   1383.84270  178.00000  16.23617             14.00373
647.76154   1201.57692  130.00000  16.11479             10.41530
650.09402   789.18376   234.00000  24.13418             12.44907
650.40127   685.45223   314.00000  24.93609             16.17142
652.49000   1189.59000  200.00000  20.76434             12.40286
653.12862   416.30225   311.00000  25.74223             15.73077
654.54440   1262.30888  259.00000  23.03401             14.36211
651.32110   1349.94495  109.00000  14.76738             9.59963
653.94915   1613.47458  177.00000  16.74502             13.54232
655.77739   1287.55830  283.00000  32.18168             11.60119
653.10145   1425.56522  138.00000  15.37825             11.52067
658.74539   1134.77860  271.00000  23.73270             14.58351
656.77005   763.03743   187.00000  19.51918             12.44773
655.22543   1216.12139  173.00000  16.83619             13.20633
662.08197   665.86885   244.00000  23.86139             13.08569
658.71728   1652.79581  191.00000  18.03090             13.50967
663.59438   538.87952   249.00000  26.43555             12.18002
662.11888   826.25874   143.00000  15.89221             11.50557
664.85246   745.07104   183.00000  23.32331             11.02946
661.29885   1121.32184  87.00000   11.16773             9.91980
661.25000   917.22500   120.00000  16.45733             9.33878
663.59067   1350.68912  193.00000  19.76313             12.55248
662.90123   1110.44444  81.00000   10.64924             9.68737
666.12921   244.01124   178.00000  16.43163             13.81832
666.29121   813.73077   182.00000  19.56932             12.07022
674.30868   403.83280   311.00000  27.20713             14.69867
667.15029   1406.78613  173.00000  16.88790             13.09968
667.67978   1467.62360  178.00000  16.78242             13.55198
671.46970   515.87576   330.00000  22.97973             18.58863
668.94857   858.08000   175.00000  17.52831             12.75336
668.26786   1048.72321  112.00000  13.30957             10.81250
673.19600   680.12800   250.00000  24.46656             13.18903
675.32187   562.05938   320.00000  24.33440             17.13835
671.61871   804.76978   139.00000  16.85927             10.78306
671.12360   1431.42135  178.00000  16.70006             13.64067
672.40000   876.91111   90.00000   12.82932             8.97465
677.32323   1170.25253  198.00000  22.60925             11.22355
671.38028   1283.46479  142.00000  16.09178             11.26704
672.21839   1378.03448  174.00000  19.98389             11.20960
673.16197   1481.50704  142.00000  15.08430             12.05333
676.47482   1107.57554  139.00000  14.31185             12.34126
676.95122   1262.98374  123.00000  13.96554             11.32711
677.56667   1445.08333  180.00000  17.05881             13.53897
684.21649   720.89691   291.00000  26.42478             14.28334
675.80000   1356.44286  70.00000   11.56309             7.76088
679.39623   989.43396   159.00000  19.16739             10.75826
686.06410   1306.98077  156.00000  18.49471             11.06285
686.87197   460.95848   289.00000  22.98727             16.09535
679.24390   973.00000   41.00000   7.23137              7.16525
684.67832   1227.98601  143.00000  18.74963             9.80487
684.23243   747.29730   185.00000  21.56560             11.48902
683.44048   1384.51190  84.00000   11.32451             9.46579
684.79245   1358.55660  106.00000  12.99717             10.54340
687.17339   1513.39919  248.00000  25.98542             12.26264
687.62381   807.49524   210.00000  18.43455             14.65144
685.89041   1101.21918  73.00000   10.03783             9.29172
690.20253   1183.57595  158.00000  19.00497             10.70368
689.12353   838.83529   170.00000  19.85009             11.13454
687.58929   966.16071   56.00000   9.55972              7.50710
694.57416   274.37321   209.00000  16.59634             16.25650
692.64430   1069.04698  149.00000  17.66869             10.73722
698.84956   1130.01180  339.00000  29.64963             15.65006
696.91011   649.09551   178.00000  17.93890             12.74774
695.67347   1219.88776  98.00000   13.60911             9.18667
699.36788   627.93264   193.00000  18.60594             13.41624
697.17117   1438.54955  111.00000  15.13985             9.47674
700.97887   1159.69014  142.00000  15.76976             11.55133
698.46237   1252.69892  93.00000   14.10491             8.38125
705.33333   736.57639   288.00000  23.60730             16.43309
707.71658   604.64171   187.00000  18.31091             13.10191
707.21875   1305.99375  160.00000  18.74847             10.94206
711.75000   309.48106   264.00000  25.20504             13.45488
705.63359   1281.68702  131.00000  16.66925             10.34116
708.53265   1504.65636  291.00000  24.39415             15.25618
706.36923   948.13846   65.00000   10.04689             8.25477
708.31967   691.05738   122.00000  14.00881             11.14289
710.80569   914.72512   211.00000  21.10790             13.38171
711.23810   960.77976   168.00000  18.12627             12.04528
712.34925   1027.99104  335.00000  22.79172             18.95020
708.43750   1262.50893  112.00000  12.90238             11.42837
713.39336   668.52607   211.00000  19.64999             13.85906
713.45000   552.93462   260.00000  20.63471             16.21989
712.29091   1191.96970  165.00000  17.85094             11.94227
714.81579   1378.67105  152.00000  16.42068             11.85361
714.49383   1398.12963  162.00000  16.97889             12.26018
714.32787   1257.27869  61.00000   11.22932             7.11420
720.97838   530.46757   370.00000  25.79223             18.69965
719.20773   629.35749   207.00000  20.17607             13.10853
718.68444   54.26222    225.00000  18.78265             15.39072
716.50000   1456.45283  106.00000  12.56830             10.75465
718.72358   1043.16260  123.00000  13.43398             11.84162
719.83784   1066.55405  74.00000   11.15459             8.48366
724.83628   773.04425   226.00000  18.53367             15.75162
721.38889   1108.53704  54.00000   11.10128             6.26169
720.36538   1410.42308  52.00000   8.19259              8.05012
730.19255   438.95963   322.00000  24.97145             16.75416
723.67568   657.00901   111.00000  13.55491             10.49856
722.53608   1280.41237  97.00000   11.40085             10.95542
723.47692   1780.35385  130.00000  16.65898             10.18771
727.73856   935.92157   153.00000  19.45125             10.06447
724.94954   1513.33028  218.00000  23.69405             11.85690
725.41436   1546.92265  181.00000  16.70666             13.86719
730.32632   494.71579   190.00000  18.99904             13.13246
725.80165   560.92562   121.00000  13.69336             11.27589
727.42574   1236.02970  101.00000  14.99720             8.66377
727.64179   984.81095   201.00000  22.23765             11.79831
728.43810   1255.00000  105.00000  12.44170             10.73313
730.69588   325.17526   194.00000  16.07347             15.42932
732.27053   614.46377   207.00000  19.89512             13.29113
728.79412   1079.79412  102.00000  13.27154             9.83392
730.42424   1059.34343  99.00000   12.63041             9.95692
730.77273   1273.84848  66.00000   10.23124             8.21348
731.50847   813.62712   59.00000   9.59487              7.84711
736.00578   1395.71676  173.00000  17.29723             12.99205
732.12245   1028.25510  98.00000   13.47112             9.45574
735.80606   1193.96970  165.00000  17.76772             11.93546
735.79545   654.63636   88.00000   15.65770             7.36430
741.56881   413.33945   218.00000  19.51677             14.22371
739.96216   558.24865   185.00000  19.06594             12.42216
741.08333   1236.21212  132.00000  15.12606             11.14403
739.11957   1473.56522  92.00000   11.74893             9.96148
742.84146   512.66667   246.00000  21.45560             14.88321
740.52212   1463.48673  113.00000  13.31835             10.82566
741.63717   702.43363   113.00000  13.97356             10.36570
740.86420   967.54321   162.00000  19.39233             10.63689
742.34586   1030.48120  133.00000  13.63405             12.48688
746.32422   900.42188   256.00000  19.79226             17.04551
743.28926   1330.47934  121.00000  13.91413             11.11890
744.43333   1378.81905  210.00000  23.14011             11.57573
744.14545   1502.20000  110.00000  13.21006             10.62105
745.82313   740.62585   147.00000  15.80705             11.99641
747.72430   797.81308   214.00000  18.04678             15.31038
744.97414   1268.59483  232.00000  23.42497             12.80406
745.04167   691.59375   96.00000   11.45818             10.67122
745.04000   1017.54000  100.00000  12.47569             10.19735
746.66667   677.26126   111.00000  12.81167             11.06493
746.61798   1362.03371  89.00000   13.23192             8.60632
751.16667   44.80000    120.00000  13.68793             11.30587
754.34392   387.28571   189.00000  19.19377             12.53983
752.00000   774.30693   101.00000  13.02443             9.88375
753.39744   824.78205   156.00000  17.83583             11.25148
757.75758   888.02652   264.00000  30.82132             11.14929
756.35169   647.17797   236.00000  24.10324             12.58755
752.20472   1254.73228  127.00000  15.12156             10.73415
758.53000   1404.22667  300.00000  24.86477             16.33483
752.64179   1491.95522  134.00000  14.19882             12.12907
756.51838   578.76838   272.00000  25.90129             13.96089
756.12121   1445.31818  198.00000  17.80952             14.80637
755.43262   699.77305   141.00000  16.09874             11.18974
754.35526   991.22368   76.00000   10.27669             9.50297
757.65728   913.43662   213.00000  24.09295             11.34973
757.72549   1069.25490  204.00000  18.80713             14.59410
759.54375   863.50625   160.00000  17.44436             11.70740
759.14679   1048.56881  218.00000  18.71507             14.85479
757.56977   846.18605   86.00000   11.24052             9.73105
762.76190   405.25595   168.00000  17.99488             11.93796
759.76562   1523.44531  128.00000  14.42794             11.33172
760.94898   733.62245   98.00000   13.66308             9.23491
761.72381   830.99048   105.00000  12.42826             10.79207
762.96503   983.51049   143.00000  15.58433             11.70212
761.02273   1243.56818  88.00000   11.59930             9.62529
763.64021   525.26984   189.00000  15.85961             15.22350
765.36416   1221.23121  173.00000  19.79370             11.31606
761.69231   815.36538   52.00000   9.19066              7.24543
767.67050   965.62452   261.00000  22.43434             15.49547
762.45902   1028.80328  61.00000   9.93167              7.87991
763.70238   785.07143   84.00000   11.18928             9.58005
769.47809   30.61355    251.00000  21.60481             14.88490
769.31333   797.41333   150.00000  18.27760             10.50579
767.49107   1014.08929  112.00000  14.06258             10.23164
769.47531   1331.79012  162.00000  18.68886             11.08830
769.17327   505.22277   202.00000  19.25177             13.41699
769.48951   1561.21678  143.00000  14.67521             12.43148
772.51741   713.34826   201.00000  19.24809             13.39352
772.64162   850.16185   173.00000  18.08881             12.33574
770.78082   1300.97945  146.00000  14.13143             13.30645
773.41880   581.79915   234.00000  21.22095             14.07783
775.18367   615.69388   245.00000  24.30253             14.61118
771.70161   840.17742   124.00000  16.79987             9.63013
771.47872   1001.11702  94.00000   13.12257             9.29410
771.30000   1276.06667  180.00000  16.39396             14.07733
770.73504   1532.43590  117.00000  13.80472             10.81948
772.52601   1129.08671  173.00000  17.17291             12.91011
775.79268   487.59756   246.00000  19.79811             15.82654
775.77130   536.54260   223.00000  18.43818             15.54141
776.11538   685.75214   234.00000  17.35999             17.19468
772.67816   747.96552   87.00000   11.37129             9.72998
773.78049   1413.28659  164.00000  19.37536             10.95325
773.60606   1547.80808  99.00000   12.48813             10.13866
772.96154   1349.11538  78.00000   11.11671             9.08521
773.12632   1366.10526  95.00000   12.87711             9.42003
775.34862   735.87156   109.00000  12.23985             11.38063
778.65354   947.84252   127.00000  18.79750             8.70096
773.22642   1031.83019  53.00000   8.85069              7.67788
777.06838   1456.58547  234.00000  21.19367             14.33318
778.27811   1244.00000  169.00000  16.89529             12.79369
780.31452   1483.64113  248.00000  23.61008             13.40745
781.64641   460.08840   181.00000  19.00405             12.15154
777.90566   806.92453   53.00000   8.53974              8.08736
784.44643   1196.14881  168.00000  25.34700             8.68968
781.97899   1395.93277  238.00000  20.15760             15.22863
781.01075   1029.73118  93.00000   13.71374             8.70182
781.52542   1343.96610  118.00000  12.72273             11.97462
784.86900   426.06114   229.00000  18.24632             16.43977
782.50968   788.06452   155.00000  17.19979             11.54943
781.41304   753.33696   92.00000   12.30302             9.51442
782.51095   1362.61314  137.00000  16.18992             10.81973
785.51316   1500.78947  152.00000  18.99172             10.49675
783.89922   1112.03876  129.00000  16.26663             10.20188
786.30108   1000.39785  93.00000   11.73618             10.13668
787.60150   1302.09023  133.00000  15.02073             11.33130
789.68786   13.24277    173.00000  19.24711             11.86220
788.41606   1273.78102  137.00000  14.83063             11.78599
790.97826   370.23370   184.00000  15.81423             14.86996
792.12857   983.88571   210.00000  20.05052             13.37582
793.93092   1134.74342  304.00000  25.08393             15.72907
789.63265   1520.13605  147.00000  15.28634             12.24947
793.41711   665.59358   187.00000  20.17262             12.09774
793.08917   931.76433   157.00000  15.46476             12.98421
790.03409   1009.79545  88.00000   11.81183             9.49507
793.03676   39.66912    136.00000  14.05443             13.33702
793.33824   675.69118   136.00000  16.31439             10.84173
794.83916   869.81818   143.00000  19.18249             9.58938
792.11429   1020.82857  140.00000  14.01025             12.75951
792.88000   1076.20000  100.00000  13.52411             9.47776
794.35266   542.00000   207.00000  19.83088             13.47004
796.06818   699.66477   176.00000  17.68121             13.05766
800.43478   853.27391   230.00000  19.22316             15.30280
804.89904   920.13462   208.00000  24.16244             11.18862
796.63415   1368.50000  82.00000   10.60352             9.89010
802.23256   1267.56977  172.00000  18.44604             11.92653
801.03468   583.54913   173.00000  18.80158             11.77206
802.98621   633.97241   145.00000  16.17093             11.47844
806.60596   1383.22517  302.00000  25.20574             15.64330
801.55959   1409.82902  193.00000  17.74366             14.13245
802.13014   504.63699   146.00000  14.95769             12.43384
800.18750   890.63750   80.00000   11.10823             9.24890
804.51099   1176.06593  182.00000  16.05452             14.79176
804.43701   344.96850   254.00000  19.47041             16.78784
803.69600   789.73600   125.00000  14.55131             10.96037
803.42748   829.13740   131.00000  13.96458             12.14139
809.12025   950.70886   316.00000  21.98760             18.41356
804.22581   1109.09677  62.00000   10.87817             7.25056
810.55000   473.11154   260.00000  21.75200             16.38655
812.16107   620.49329   298.00000  23.53620             16.53045
811.08947   1056.25789  190.00000  21.78823             11.43387
812.39130   571.69565   207.00000  19.60628             13.64810
814.37367   516.83986   281.00000  25.14562             14.73805
811.16667   841.53175   126.00000  14.09839             11.57777
813.47959   759.53061   196.00000  19.57939             13.28392
814.21941   976.34599   237.00000  19.37977             15.77266
816.55450   652.98578   211.00000  19.24113             14.15096
814.13812   998.24309   181.00000  19.77979             11.74667
817.81343   1286.18284  268.00000  25.40198             13.55276
812.31915   1549.00709  141.00000  14.59844             12.31989
815.85047   1328.19159  214.00000  18.36537             15.02434
816.39130   1438.53913  230.00000  17.75634             16.66795
816.11696   712.62573   171.00000  15.92157             13.68814
816.18462   1080.89744  195.00000  19.63105             12.74124
816.62759   1403.55172  145.00000  14.21088             13.16877
817.76271   1512.09605  177.00000  16.70814             13.63005
815.47059   797.50588   85.00000   10.51581             10.27578
817.82589   1151.43304  224.00000  20.25625             14.16935
817.72269   1779.41597  238.00000  21.29904             14.30868
819.95238   14.55556    189.00000  17.65382             13.69597
824.26667   1170.10303  330.00000  34.21950             12.95527
821.18321   606.74046   131.00000  15.31765             10.97252
825.23671   857.47343   207.00000  23.69294             11.12239
821.56081   905.33784   148.00000  16.44613             11.47342
822.51376   743.75229   218.00000  18.63208             15.38999
823.29508   1061.18033  183.00000  16.81800             14.10677
825.87449   1229.08907  247.00000  20.21169             15.97314
828.40443   330.09972   361.00000  27.21777             17.05252
830.28109   1122.55721  402.00000  29.88351             17.38209
825.71649   479.70619   194.00000  16.91426             15.06218
824.02674   1026.93048  187.00000  18.13658             13.29076
822.50000   1570.00000  130.00000  13.47069             12.25444
824.88764   1214.49438  178.00000  15.83447             14.38123
824.73684   1459.26316  114.00000  13.50534             10.83628
827.24434   421.32127   221.00000  18.88383             15.04255
828.40828   886.72781   169.00000  17.17577             12.56763
826.69697   932.16667   66.00000   11.00114             7.90670
831.46930   1491.12281  228.00000  19.14832             15.25564
831.98921   982.49640   278.00000  19.69708             18.14950
831.16667   1199.74359  156.00000  19.72979             10.14804
832.51205   835.51205   166.00000  17.57050             12.18317
828.81633   1084.32653  98.00000   13.50816             9.25480
834.32836   693.66418   134.00000  18.17330             9.72112
833.35326   1331.25543  184.00000  17.24789             13.84982
832.21101   798.35780   109.00000  12.12839             11.43687
834.57062   1395.49153  177.00000  16.40997             13.80613
838.02183   945.64629   229.00000  20.78708             14.41195
836.68984   1297.87701  187.00000  20.94495             11.37021
835.57616   1595.21854  151.00000  15.31115             12.57440
837.82286   432.41143   175.00000  16.88732             13.34110
835.08791   784.32967   91.00000   11.74908             9.94312
837.09040   869.99435   177.00000  17.14444             13.32405
835.67961   1031.14563  103.00000  12.93864             10.30450
840.55660   625.49528   212.00000  18.58016             14.64322
840.11558   1074.20603  199.00000  19.68114             12.89233
838.54321   776.25926   81.00000   11.13494             9.27996
845.98800   685.78800   250.00000  21.81697             15.04242
843.79255   1181.32447  188.00000  18.03650             13.36130
847.37134   1380.45277  307.00000  22.85880             17.18083
848.49719   543.63202   356.00000  23.40725             20.10425
845.37714   1413.40000  175.00000  17.16429             13.06435
846.20642   744.32569   218.00000  19.81638             14.60728
844.95714   702.92857   140.00000  15.04753             11.86487
848.15649   1781.02290  262.00000  18.89695             18.11754
847.46703   22.32967    182.00000  17.16385             13.73044
850.83884   663.59504   242.00000  22.88984             13.53872
844.30769   906.64103   78.00000   10.92692             9.13153
846.39634   1436.15854  164.00000  17.13252             12.24348
850.16959   1002.46784  171.00000  18.16858             11.99899
848.66304   1032.67391  184.00000  20.05015             11.81910
846.33333   1614.76190  105.00000  12.37829             10.80995
852.82203   818.03814   236.00000  27.78292             11.10136
848.84828   1057.24828  145.00000  15.49887             11.92518
849.98578   603.10900   211.00000  18.40826             14.97342
853.03431   866.97059   204.00000  22.35607             11.98106
850.81781   1348.04453  247.00000  22.76335             13.98683
856.93953   929.39070   215.00000  21.97993             12.71808
856.54082   1294.61224  196.00000  19.70760             12.83309
853.49533   635.79439   214.00000  20.51846             13.31566
851.51389   776.05556   72.00000   10.54154             8.94061
860.72185   968.86093   453.00000  30.57419             19.60781
853.79747   1452.62658  158.00000  16.68000             12.15528
857.41364   1188.37273  220.00000  18.76841             15.21080
853.28000   834.51000   100.00000  12.52212             10.15975
859.47059   1213.06723  238.00000  23.43861             13.09400
858.36948   1166.52209  249.00000  18.31764             17.40121
856.62676   468.99296   142.00000  13.89314             13.16061
860.18972   772.16206   253.00000  22.24913             15.25890
859.07000   1015.82000  200.00000  16.62609             15.49504
857.31707   1140.09756  205.00000  21.71211             12.39489
859.71176   453.58235   170.00000  16.12024             13.46084
861.56044   1247.62637  182.00000  23.23997             10.25320
857.27500   1313.10000  80.00000   10.97497             9.26175
859.79439   1928.00000  107.00000  17.67906             8.14177
859.52419   1108.13710  124.00000  19.13121             8.80669
861.24762   584.43175   315.00000  29.52550             14.34857
863.78030   476.79545   132.00000  18.74392             9.12935
863.29018   1761.10268  224.00000  18.40487             15.56192
866.90431   355.38756   209.00000  19.37015             13.89120
862.57143   857.01299   77.00000   11.37366             8.59233
871.71059   1086.11886  387.00000  28.26064             17.93752
871.32683   296.83902   410.00000  31.12529             17.27425
867.87160   622.84436   257.00000  18.58443             17.91437
864.54815   1366.88148  135.00000  17.20501             10.13062
868.15789   727.70335   209.00000  19.05988             14.05952
865.60417   1199.89583  96.00000   13.37677             9.20406
867.17000   846.89000   100.00000  12.40199             10.26521
868.94944   1141.64045  178.00000  15.95898             14.36012
868.81618   1408.40441  136.00000  14.19518             12.21563
876.04230   992.98792   331.00000  23.59225             18.00278
869.03636   1393.67273  55.00000   9.19272              7.61905
870.67105   1484.50658  152.00000  14.77434             13.25806
871.96763   559.66906   278.00000  30.17034             11.85690
872.44915   916.84746   236.00000  22.18644             13.73943
873.53005   1027.00000  183.00000  17.40419             13.54724
877.70395   707.94737   152.00000  21.05491             9.63448
875.53846   1104.66154  130.00000  15.79587             10.51388
872.93860   1341.34211  114.00000  13.06717             11.12372
881.26923   738.27273   286.00000  29.82446             12.48264
877.47191   1159.32584  178.00000  17.13994             13.32459
875.47525   781.50495   101.00000  12.74395             10.07877
878.13966   1047.43017  179.00000  17.07385             13.39072
875.69565   1227.85507  69.00000   10.87151             8.19283
879.16837   424.44898   196.00000  19.73835             12.79446
879.91026   527.15385   234.00000  22.05713             13.57289
882.57391   655.46522   230.00000  18.71551             15.98767
878.85556   812.55556   90.00000   12.36296             9.46201
882.30000   756.12500   120.00000  16.02067             9.67031
882.52074   1616.43779  217.00000  19.14352             14.48918
882.31429   770.18095   105.00000  13.19546             10.13078
877.47059   892.64706   17.00000   4.95795              4.33861
881.88344   1186.10429  163.00000  15.17526             13.72096
883.47368   1199.70526  95.00000   14.21597             8.70087
885.05042   1206.82353  119.00000  19.46392             7.96074
882.10127   1257.67089  79.00000   11.99241             8.66282
883.31429   1283.68571  105.00000  13.39014             10.03330
888.62312   345.04523   199.00000  18.10496             14.21286
885.43137   839.54902   102.00000  12.37942             10.54816
892.07074   1175.11254  311.00000  27.43706             15.09858
884.42553   1225.82979  47.00000   8.17922              7.27829
888.02703   816.44144   111.00000  12.31050             11.59634
892.51010   801.73232   198.00000  17.12473             14.86164
891.02381   688.30952   168.00000  17.18065             12.56024
891.90647   1148.17986  139.00000  13.81136             12.80789
889.86667   854.68889   45.00000   9.35116              6.50217
895.66242   1089.77707  157.00000  17.41988             11.53088
893.97980   781.20202   99.00000   11.50552             10.95693
896.12338   870.15584   154.00000  15.87995             12.43268
896.25658   900.57237   152.00000  19.05505             10.39634
896.78632   1050.81197  234.00000  19.79644             15.05664
901.99005   1211.97015  201.00000  28.18951             10.87982
896.75210   491.46639   238.00000  21.58494             14.17585
895.31250   714.89583   144.00000  17.31249             10.76452
893.33333   1255.95833  48.00000   8.24630              7.45160
898.64894   369.63298   188.00000  17.65841             13.83374
899.22727   957.01948   154.00000  21.39377             9.36803
901.75532   1516.67553  188.00000  16.23794             14.78879
900.46465   1225.75758  99.00000   12.43851             10.11849
904.86784   1075.83260  227.00000  20.65344             14.08793
903.50840   1137.32773  238.00000  19.49377             15.85081
906.24752   455.61386   202.00000  21.30104             12.20650
903.68072   470.81928   166.00000  16.35706             13.39947
905.83794   599.01581   253.00000  20.58488             15.87689
900.94186   1389.61628  86.00000   12.12715             9.05340
905.83735   546.39157   166.00000  16.26828             13.20219
909.79699   348.97744   266.00000  20.18751             16.92020
915.89377   530.79487   273.00000  34.98479             10.23398
909.18660   564.15311   209.00000  19.03327             14.08309
909.08333   655.57692   156.00000  17.97868             11.13309
907.37870   1499.96450  169.00000  16.88172             12.75835
911.11458   1542.28472  288.00000  21.67665             17.34308
908.54971   713.63158   171.00000  15.07541             14.44875
909.82353   778.13235   136.00000  14.74505             11.74905
911.19111   848.37333   225.00000  21.41327             13.46434
906.77083   1447.33333  48.00000   8.60523              7.63754
911.34946   936.32258   186.00000  15.70802             15.12260
912.96703   1274.64286  182.00000  21.31866             11.02971
911.95745   1473.04965  141.00000  16.74580             10.78575
915.12253   291.63636   253.00000  18.77076             17.27407
913.03310   803.25296   423.00000  34.96243             15.82053
917.04384   1103.74739  479.00000  28.33516             21.90605
920.38701   493.45195   385.00000  28.21420             17.58389
917.67974   1024.70588  306.00000  27.89756             14.20975
915.87440   1053.84058  207.00000  17.50328             15.12301
910.45161   1200.29032  31.00000   6.85750              5.70016
916.98684   1356.84211  228.00000  18.35600             15.86310
916.67526   1747.94845  194.00000  18.45047             13.76814
918.16279   622.93023   215.00000  18.15303             15.29410
917.83929   1138.05357  168.00000  15.20487             14.19491
921.36517   702.44944   178.00000  19.57027             11.63676
923.72727   745.03209   187.00000  17.29378             13.92865
921.05096   1003.11465  157.00000  15.71245             12.77341
921.64885   1212.58779  131.00000  14.77916             11.37424
923.02709   1399.12069  406.00000  33.75248             15.67883
924.92025   683.25153   163.00000  15.92764             13.15947
924.60140   1167.38462  143.00000  18.52307             9.88681
923.08000   1457.50667  150.00000  18.17263             10.53498
923.65217   756.38043   92.00000   12.68190             9.22924
924.68750   1152.40909  176.00000  17.10602             13.16877
926.99174   777.81818   121.00000  16.29341             9.46389
927.82840   1307.83432  169.00000  17.10277             12.61840
924.72414   1334.64368  87.00000   11.45203             9.76233
933.63863   1067.05607  321.00000  25.98202             16.36282
937.29455   718.53455   275.00000  29.60052             12.36072
933.13000   1586.24667  300.00000  20.51739             18.70845
934.32919   707.04969   161.00000  17.98109             11.54738
936.33962   531.39623   212.00000  19.02663             14.22620
934.19014   630.75352   142.00000  16.36216             11.06305
936.65323   925.33871   248.00000  22.93523             14.11552
931.78125   821.62500   32.00000   6.75163              6.07453
937.89610   938.31169   154.00000  16.92981             11.90732
941.23673   417.13061   245.00000  22.59033             13.95449
939.72112   853.15936   251.00000  20.83406             15.71219
939.57600   1743.62400  250.00000  20.81507             15.83093
942.11647   1131.38554  249.00000  24.70957             13.38638
939.66387   1232.31092  119.00000  16.90931             9.00781
942.22756   583.29808   312.00000  22.04110             18.62013
940.56140   755.13158   114.00000  15.61823             9.38159
942.72986   982.81043   211.00000  24.42579             11.04959
939.23353   1013.69461  167.00000  15.51539             13.74786
938.40244   1359.64634  82.00000   11.02573             9.50926
940.78605   1448.84651  215.00000  19.17889             14.36114
943.85641   257.21026   195.00000  18.06001             13.78885
943.67949   431.56838   234.00000  23.17112             13.17910
946.13136   736.51271   236.00000  22.37525             13.48766
944.00000   637.04286   140.00000  15.77413             11.41698
940.81633   1114.30612  49.00000   9.76760              6.40343
942.68687   783.04040   99.00000   13.50040             9.33673
943.95205   1209.50000  146.00000  14.34959             13.13462
950.94697   1044.81061  264.00000  29.00070             14.45708
944.97872   1481.45390  141.00000  14.50767             12.37291
947.40000   208.45116   215.00000  18.86240             14.58870
948.49444   829.78889   180.00000  18.14896             12.61883
948.83636   967.53333   165.00000  16.98808             12.58577
952.53430   1502.40794  277.00000  21.81844             16.28325
954.94663   612.59551   356.00000  23.92397             19.31037
946.91071   771.17857   56.00000   9.26736              7.67507
950.83626   562.45029   171.00000  15.49709             14.09421
951.82836   813.63433   134.00000  15.09901             11.31793
952.04348   1234.65217  92.00000   13.19017             8.90831
951.02985   935.29851   67.00000   11.12653             7.68886
956.33755   1082.51055  237.00000  19.44505             15.74365
955.74020   1111.59314  204.00000  20.77828             12.54894
963.59892   1323.36585  369.00000  27.24291             18.65019
963.84286   1257.42857  210.00000  25.53539             10.59382
959.58586   761.16162   99.00000   13.91138             9.27243
963.50189   779.14340   265.00000  22.41114             15.30989
961.68000   831.88800   125.00000  16.81504             9.52425
962.97861   578.86631   187.00000  17.72512             13.46684
963.43750   981.82143   112.00000  17.77174             8.13412
968.81911   1022.49829  293.00000  29.56782             13.00847
967.50859   1557.50172  291.00000  23.15093             16.28880
963.64390   1601.32683  205.00000  16.65353             15.72119
964.16981   1128.51887  106.00000  14.94468             9.27367
965.00532   1230.36702  188.00000  18.64767             12.91141
965.22346   470.25698   179.00000  15.88773             14.41071
969.64935   941.16883   231.00000  25.92429             11.45372
968.79677   1190.29032  310.00000  22.55764             17.56705
967.53691   658.40268   149.00000  16.27185             11.66506
967.91628   556.13488   215.00000  19.98294             13.99999
969.81452   630.39516   248.00000  28.49156             11.21727
968.17588   701.01005   199.00000  17.99344             14.17765
967.14458   754.60241   83.00000   11.18871             9.52598
966.78481   1354.46835  79.00000   11.17994             9.04413
968.45161   729.64516   93.00000   11.64374             10.14546
968.29412   1304.85882  85.00000   11.35296             9.55703
972.97653   255.76526   213.00000  17.15227             15.82677
975.18367   898.49388   245.00000  22.92843             13.65223
969.56842   925.55789   95.00000   11.46963             10.69890
976.04324   960.41622   185.00000  21.67244             11.98111
973.85714   1139.08824  238.00000  19.18371             15.87784
970.41880   421.77778   117.00000  15.34592             9.71827
975.41121   1033.96729  214.00000  19.54067             14.02669
972.21127   1073.26761  142.00000  14.80144             12.23771
976.86784   506.15419   227.00000  23.09951             12.97742
976.36652   202.30769   221.00000  17.23848             16.66447
971.92405   1413.49367  79.00000   12.31074             8.33466
981.92469   689.08787   239.00000  27.27778             11.22801
978.90761   230.80978   184.00000  18.22476             12.88794
977.63125   639.18750   160.00000  14.77350             13.96086
975.00000   720.26437   87.00000   11.18235             9.95611
977.99206   769.53968   126.00000  16.46148             9.81300
974.58730   861.52381   63.00000   9.82566              8.17030
977.92157   881.80392   102.00000  14.44503             9.12871
978.24194   1446.97581  248.00000  20.62800             15.41651
979.71739   276.55435   184.00000  16.39164             14.47899
978.62092   796.58170   153.00000  19.05702             10.50081
980.38365   459.72327   159.00000  15.35606             13.30843
982.48387   1160.73733  217.00000  18.13759             15.29444
986.65260   1585.41234  308.00000  26.01514             15.15685
980.67532   1656.41558  154.00000  14.99269             13.10756
984.17788   1230.02885  208.00000  19.65005             13.54373
980.41860   1315.87209  86.00000   12.17525             9.10662
985.84021   973.60825   194.00000  19.60413             12.66986
982.06154   1213.69231  130.00000  14.56906             11.38207
983.98305   1295.50000  118.00000  16.18760             9.48100
987.97354   152.31746   189.00000  20.05816             12.12038
985.90756   1102.03361  119.00000  14.05661             10.77992
989.00469   904.09859   213.00000  20.23054             13.47007
990.60000   260.08276   290.00000  19.42912             19.23157
990.20000   1344.84211  190.00000  21.39917             11.47559
986.92667   1077.66000  150.00000  17.29236             11.41922
991.33121   1200.57962  157.00000  17.90978             11.33878
988.46575   724.94521   73.00000   10.21972             9.11931
999.86104   1059.64516  403.00000  33.67587             15.82814
991.77872   540.04681   235.00000  20.94199             14.33348
990.17241   738.91954   87.00000   10.99131             10.11158
990.19728   1188.00000  147.00000  16.35344             11.47713
991.69444   1499.59444  180.00000  16.73351             13.74521
994.64314   361.53333   255.00000  22.88311             14.36014
995.07602   826.11111   171.00000  18.28275             12.02145
998.48263   1141.17375  259.00000  23.23630             14.49230
995.18519   1330.58201  189.00000  20.67674             11.78404
993.09816   1440.68098  163.00000  17.18400             12.19706
996.08511   458.84574   188.00000  18.07176             13.32970
997.11062   1095.17699  226.00000  23.62085             12.30351
998.60234   1368.22222  342.00000  24.43047             18.27330
994.88182   1743.36818  220.00000  18.43429             15.22567
1002.17434  662.36842   304.00000  33.20685             13.19748
996.40991   1000.42342  222.00000  24.62380             11.72983
997.88750   1156.96875  160.00000  15.51273             13.13915
997.21233   1211.63699  146.00000  16.51933             11.28497
998.63393   1611.16964  224.00000  18.57214             15.46099
997.24294   503.62147   177.00000  19.15977             11.81087
1001.67138  621.61131   283.00000  21.72952             16.71907
999.33333   783.56604   159.00000  15.13539             13.39823
1001.22707  954.88210   229.00000  19.65197             14.86010
1002.84161  596.73292   322.00000  23.36295             17.81781
999.22388   836.72388   134.00000  14.95294             11.52025
1004.96939  1297.16837  196.00000  25.03585             10.11378
1003.10500  581.06000   200.00000  18.86732             13.79385
1000.05042  813.38655   119.00000  12.95727             11.74077
1004.18408  388.74129   201.00000  21.39257             12.00201
1003.98000  696.31000   200.00000  18.22639             14.17655
1004.37069  724.59483   232.00000  21.21631             14.35299
1005.06075  939.71028   214.00000  20.17632             13.56053
1006.17714  986.73714   350.00000  23.67683             18.88537
1005.26471  552.25882   170.00000  16.98145             12.94976
1006.81290  1261.61290  155.00000  18.23213             10.88648
1003.85714  927.80952   63.00000   10.29047             7.91177
1007.12579  803.60377   159.00000  15.83386             12.81540
1007.24204  1245.10828  157.00000  14.64297             13.84168
1008.34884  183.93798   129.00000  17.37669             9.71112
1011.42515  877.30539   167.00000  21.26407             10.03377
1013.06202  470.80103   387.00000  30.42895             16.32546
1011.83000  506.64000   300.00000  29.64542             13.64893
1013.13580  647.46502   243.00000  22.63609             13.82075
1012.93785  750.79096   177.00000  22.94229             10.00270
1012.54271  342.68844   199.00000  17.46260             14.80826
1014.64725  1108.58900  309.00000  25.39492             15.58139
1013.82564  139.61026   390.00000  30.17483             16.75032
1012.73478  918.97391   230.00000  17.56069             17.09256
1014.91403  733.61086   221.00000  18.21481             15.52041
1014.89831  1569.92373  236.00000  19.42771             15.53347
1017.69955  1134.24664  223.00000  23.01080             12.53642
1018.52853  1178.63363  333.00000  23.32576             18.27437
1017.05682  224.67045   176.00000  16.31367             13.83285
1018.37024  1018.15917  289.00000  20.44480             18.08572
1021.09231  832.71282   195.00000  22.79962             11.11217
1017.31034  1488.69828  116.00000  13.12779             11.30035
1018.97596  851.47596   208.00000  17.61307             15.20601
1024.68201  1158.30126  239.00000  24.21264             13.13465
1022.57225  1234.93642  173.00000  20.54061             10.73774
1019.04494  1374.65169  89.00000   13.03020             8.76752
1021.26207  941.42759   145.00000  14.45578             12.90707
1020.00935  1148.73832  107.00000  13.98389             9.85828
1019.86957  1423.68116  69.00000   10.96080             8.01030
1026.26253  623.00477   419.00000  30.31986             17.85126
1026.65803  691.19689   193.00000  20.56243             12.43015
1025.49071  1053.52416  269.00000  20.32024             16.89721
1022.25000  1305.61875  160.00000  18.89532             10.96089
1020.68675  1318.60241  83.00000   11.25992             9.47828
1022.02392  1642.80861  209.00000  19.14356             13.96135
1024.17000  899.19500   200.00000  19.48815             13.21292
1027.34956  577.05310   226.00000  20.40087             14.17960
1027.40559  791.58392   286.00000  21.72395             17.37886
1024.95495  1478.74775  111.00000  12.28929             11.51554
1032.14326  973.97191   356.00000  21.66075             21.07022
1029.03158  1120.76842  190.00000  15.94827             15.26536
1032.75225  1350.61712  222.00000  22.91744             14.47346
1034.13725  1038.39216  255.00000  24.53720             13.38990
1032.14286  1222.31527  203.00000  17.73634             14.60811
1031.45614  1622.31579  171.00000  16.58225             13.22276
1034.76400  727.48800   250.00000  21.01020             15.50065
1033.35526  1099.75000  152.00000  14.40288             13.56702
1036.53061  831.92347   196.00000  18.44901             13.71781
1037.69608  1087.84314  204.00000  21.37613             12.16283
1035.51759  1201.08543  199.00000  18.25922             13.89287
1033.75676  1291.37838  111.00000  14.11663             10.05957
1039.36190  503.11429   210.00000  21.60958             12.40804
1041.08523  758.48864   352.00000  30.20146             15.84668
1038.22449  1584.11735  196.00000  17.48280             14.37183
1039.12042  447.70681   191.00000  17.13232             14.20849
1038.51220  1250.57317  164.00000  16.44857             12.77919
1041.21459  1492.15451  233.00000  17.55612             16.98531
1042.00826  593.47934   242.00000  19.11005             16.16203
1041.34320  801.23669   169.00000  15.85609             13.70198
1040.00000  1374.95041  121.00000  16.34186             9.49702
1045.93667  544.09667   300.00000  21.42428             18.55837
1045.35439  887.25965   285.00000  24.88387             14.71768
1044.09934  1130.29801  151.00000  15.39882             12.63756
1045.28767  1263.35160  219.00000  21.41492             13.09672
1046.38095  235.90043   231.00000  20.22992             14.56948
1045.83036  626.54911   224.00000  19.82391             14.45482
1046.46196  693.18478   184.00000  16.72175             14.36136
1045.83212  1167.77372  137.00000  15.79653             11.03423
1048.57436  1380.03077  195.00000  21.05070             12.42269
1048.43684  1187.79474  190.00000  17.61669             13.85141
1047.36296  1145.80741  135.00000  15.10757             11.39952
1050.23037  1210.87958  191.00000  17.23866             14.13950
1050.29268  649.49390   164.00000  15.54155             13.57602
1052.59459  715.27928   222.00000  17.73496             16.16159
1053.23757  1025.92818  181.00000  18.16706             12.76476
1054.01714  1434.79429  175.00000  19.64560             11.36298
1055.10849  870.56132   212.00000  18.12376             15.03824
1058.18565  473.40084   237.00000  19.17879             15.81396
1055.78295  1304.81395  129.00000  13.41634             12.27197
1056.98446  520.52850   193.00000  17.29676             14.29290
1060.44269  222.00395   253.00000  19.50936             16.54973
1062.17846  944.96615   325.00000  23.09382             18.68953
1059.37931  354.38621   145.00000  14.95777             12.52159
1066.95111  1620.55556  450.00000  30.24273             21.10062
1062.67290  575.55140   214.00000  17.13084             16.00218
1065.71730  799.59916   237.00000  24.58589             12.56162
1063.70561  1109.43458  214.00000  20.33291             13.54384
1061.66995  1145.72906  203.00000  20.16913             12.84631
1065.97653  893.41315   213.00000  22.98920             12.14258
1064.51250  1272.54583  240.00000  20.87204             14.75314
1066.39157  1035.09036  166.00000  18.78455             11.38283
1063.22321  1377.12500  112.00000  14.06703             10.17350
1064.04167  1881.75000  192.00000  18.44346             13.43420
1065.81034  914.70690   116.00000  13.25848             11.18746
1066.54651  1003.90698  172.00000  15.56888             14.06776
1069.93785  677.02825   177.00000  16.75614             13.60351
1066.42857  923.94048   84.00000   13.17445             8.25834
1063.91667  733.29167   24.00000   6.49294              5.00361
1072.13171  1087.45854  205.00000  22.12982             11.94357
1074.58431  478.89020   255.00000  29.08306             11.54575
1076.10453  538.08362   287.00000  23.97994             15.34936
1071.25197  1399.69291  127.00000  13.75106             11.78305
1072.88106  1453.37004  227.00000  17.91352             16.20577
1073.86498  596.81435   237.00000  18.55624             16.41048
1072.97753  1044.37079  178.00000  17.89891             12.70340
1071.35260  1135.79769  173.00000  18.48446             12.02327
1076.45312  651.79167   192.00000  18.79480             13.05217
1074.82447  977.03723   188.00000  18.25083             13.36272
1074.89535  194.55814   172.00000  15.45696             14.24754
1077.05488  822.60976   164.00000  20.08442             10.79677
1079.43382  273.97794   272.00000  22.73366             15.63696
1075.18881  568.44755   143.00000  15.29580             12.02435
1081.35636  616.43636   275.00000  27.38402             13.46472
1077.94615  743.75000   260.00000  19.02285             17.49132
1076.15591  1194.69355  186.00000  18.35507             13.11471
1078.98204  1105.38922  167.00000  17.44769             12.38599
1081.41975  635.49383   162.00000  17.57870             11.87265
1087.70792  719.45297   404.00000  41.59567             13.10445
1082.94118  868.14932   221.00000  18.58432             15.55906
1086.44534  1125.23482  247.00000  21.89905             14.45598
1084.91150  1336.78319  226.00000  19.81247             14.57860
1084.52195  1417.58049  205.00000  17.87603             14.98436
1091.45425  998.85621   306.00000  26.72131             15.36610
1090.52218  359.38908   293.00000  26.58454             16.66636
1088.47115  423.66346   208.00000  18.52137             14.55159
1084.94203  1170.94203  69.00000   10.71116             8.29552
1088.88806  1365.88806  268.00000  19.50373             17.81440
1091.39823  1048.54867  226.00000  19.87105             14.54136
1089.48293  1143.74634  205.00000  18.06286             14.56948
1089.87565  1242.53886  193.00000  19.12934             13.07111
1087.29231  887.00000   65.00000   9.38392              8.81552
1091.12644  235.63793   174.00000  16.06733             13.83624
1092.57500  670.07500   200.00000  18.04089             14.27817
1093.73799  1078.30131  229.00000  20.72928             14.29414
1103.75743  1019.78465  404.00000  34.85084             15.58917
1091.93421  1433.35526  152.00000  16.06957             12.06545
1097.40273  320.96587   293.00000  28.20382             13.91805
1094.73171  558.32927   246.00000  22.53339             14.03343
1098.09465  908.12346   243.00000  24.50842             13.40856
1095.22378  194.13986   143.00000  16.98839             10.84220
1098.15184  946.73102   461.00000  32.41134             19.07231
1097.66518  1183.18750  224.00000  20.84708             13.86569
1101.06984  1408.21587  315.00000  23.71360             17.25082
1098.57377  1036.65574  183.00000  19.99784             11.73869
1100.36765  648.48529   204.00000  20.86780             12.49378
1104.81191  1155.63323  319.00000  31.63427             13.89401
1108.63889  513.62879   396.00000  32.16517             16.62843
1096.62500  407.34375   32.00000   6.48865              6.26553
1100.08844  417.38095   147.00000  14.92587             12.61340
1097.83721  824.16279   43.00000   8.63013              6.38482
1102.96947  1676.87023  131.00000  14.72892             11.50886
1106.05628  447.43723   231.00000  23.68491             12.97358
1106.26820  1591.95019  261.00000  20.51522             16.35257
1104.66082  1299.84795  171.00000  17.71438             12.49522
1112.35129  1331.66511  427.00000  33.35646             17.76504
1109.30827  1725.00752  266.00000  22.44144             15.23757
1108.94828  1433.58621  174.00000  17.75872             12.49945
1109.81313  538.48990   198.00000  18.75820             13.50548
1116.08772  1135.78246  285.00000  24.04790             15.67803
1117.41781  619.76712   292.00000  25.73570             14.89275
1116.84492  885.12834   187.00000  24.29584             10.62913
1114.29338  1085.10410  317.00000  21.94501             18.86616
1115.11321  472.80503   159.00000  16.10154             12.86417
1116.03226  1065.51613  217.00000  17.96234             15.63898
1115.57297  1699.54054  185.00000  16.19701             14.98935
1116.93528  695.23301   309.00000  23.15086             17.08483
1119.04933  781.65471   223.00000  21.04180             13.78877
1121.91477  817.52083   528.00000  31.58391             23.88102
1117.83004  429.33992   253.00000  20.60903             15.66523
1116.74752  1043.71287  202.00000  17.45521             14.77175
1121.00292  1201.60933  343.00000  24.57548             18.04093
1122.90055  837.93370   181.00000  19.09174             12.37380
1123.40639  541.81735   219.00000  20.78947             13.48163
1123.90129  638.88412   233.00000  19.29503             15.46977
1124.84559  730.21691   272.00000  19.47980             17.91951
1122.34762  935.38571   210.00000  21.32870             13.22232
1119.33333  1232.40000  45.00000   8.66478              6.63036
1121.19876  1274.98137  161.00000  17.97917             11.58228
1126.43279  1452.99344  305.00000  23.00608             17.11441
1124.47399  654.97688   173.00000  17.31343             12.73634
1125.25373  1578.36194  268.00000  24.10187             14.29864
1125.66782  316.31488   289.00000  20.92213             17.91306
1123.76168  1618.28037  214.00000  20.16076             13.57753
1125.02924  263.88304   171.00000  15.95555             13.74009
1128.68812  1477.47525  202.00000  17.28278             15.11594
1129.25000  500.44595   148.00000  21.17073             9.22084
1132.50685  591.13699   219.00000  23.76122             11.91975
1128.98907  1095.65027  183.00000  19.60298             12.10674
1130.64362  416.28191   188.00000  19.69977             12.29159
1132.91837  666.72959   196.00000  19.85491             12.69484
1131.99091  1389.70909  220.00000  19.09080             14.91322
1131.49115  1416.02655  226.00000  20.40402             14.21888
1133.12353  1028.17647  170.00000  17.47010             12.47044
1135.57558  875.93023   172.00000  15.65282             14.09376
1140.66942  1492.23140  242.00000  22.60277             13.90749
1138.12687  575.94030   134.00000  15.50710             11.08140
1137.80427  1076.55872  281.00000  23.00303             15.73536
1141.09231  1181.65769  260.00000  22.36651             14.88227
1140.93939  264.70909   165.00000  16.07225             13.12886
1138.68056  1208.72222  72.00000   11.70732             7.85028
1141.45693  1622.73408  267.00000  23.46450             14.71328
1143.70447  949.41924   291.00000  26.68556             14.38550
1145.93488  1002.30698  215.00000  18.62691             15.16061
1144.74074  154.82716   162.00000  16.37388             12.74138
1141.60227  1021.96591  88.00000   12.16211             9.48141
1145.33511  177.27660   188.00000  17.74352             13.93060
1146.19266  543.64679   218.00000  20.38059             13.72419
1148.39336  588.96209   211.00000  21.39572             12.72416
1144.40000  708.20000   40.00000   8.41732              6.09497
1149.44242  748.98182   165.00000  18.20436             11.84997
1152.06745  1046.83578  341.00000  24.29289             18.07486
1151.10986  486.47887   355.00000  25.99033             17.86297
1152.42523  1014.32243  214.00000  22.61717             12.42624
1148.42286  1128.60000  175.00000  17.54807             12.86651
1148.07586  1371.48276  145.00000  14.99075             12.45493
1153.23077  1193.38462  195.00000  19.71574             12.89758
1151.09474  406.25263   190.00000  18.90671             12.79897
1152.62102  1571.85987  314.00000  21.81042             18.50492
1150.13223  1143.13223  121.00000  14.66160             10.63979
1155.82051  1422.90064  312.00000  25.86749             16.03824
1156.93434  765.25758   198.00000  20.68577             12.26223
1155.58824  1061.49673  153.00000  16.33670             11.93969
1157.59178  926.14247   365.00000  34.89475             14.65778
1157.10611  1099.72669  311.00000  23.66186             16.97743
1156.13248  511.99573   234.00000  27.60620             11.18039
1163.06414  820.39942   343.00000  26.00929             16.92758
1154.59677  1900.83871  62.00000   9.29587              8.80550
1160.60227  1340.62500  176.00000  16.61340             13.52894
1163.20183  1534.53670  218.00000  19.03345             14.60267
1163.24364  695.62545   275.00000  22.02908             16.08404
1164.17822  592.50990   202.00000  20.50347             12.60084
1165.79538  1316.44224  303.00000  24.63005             15.81047
1163.09459  1143.87838  148.00000  15.77815             11.96255
1165.70563  1734.38528  231.00000  20.47479             14.50182
1165.11000  548.75000   200.00000  18.05466             14.24484
1165.25000  1845.05172  116.00000  13.31455             11.19223
1169.22439  1299.41463  205.00000  17.45075             15.35189
1168.33099  732.66197   142.00000  14.96147             12.23520
1174.15525  349.66210   219.00000  21.10574             13.40780
1168.76471  899.16807   119.00000  14.22369             10.87342
1172.20833  1131.50463  216.00000  17.50535             15.86684
1174.56596  1605.74894  235.00000  22.70677             13.61120
1175.01917  398.08626   313.00000  24.23706             16.68327
1177.72628  907.26642   274.00000  25.44954             15.65414
1172.18824  1088.02941  170.00000  16.83842             12.90070
1169.00000  1196.18750  32.00000   7.56847              5.67060
1175.72549  880.82353   153.00000  17.54178             11.14697
1177.33435  986.76596   329.00000  22.53032             18.73619
1177.56250  1075.67411  224.00000  19.13710             15.78683
1178.83775  1382.07616  302.00000  25.94485             14.87230
1172.00000  1361.53846  39.00000   8.20800              6.12602
1176.04036  1469.23767  223.00000  17.54014             16.20736
1173.88608  1771.32911  79.00000   13.12030             8.26725
1178.14907  567.87578   322.00000  23.68699             17.56093
1183.57295  738.75089   281.00000  26.14372             13.92906
1178.92273  1036.36818  220.00000  18.08972             15.56533
1178.14483  767.55172   145.00000  16.86331             11.23888
1179.19643  1163.56250  224.00000  19.15953             15.14043
1189.31900  1018.99548  442.00000  29.89461             19.06017
1182.96460  513.25664   226.00000  20.20701             14.58152
1189.15094  160.84591   318.00000  24.07503             17.62005
1192.27240  624.12903   558.00000  34.56854             23.09044
1185.55556  750.43590   117.00000  16.48255             9.05096
1187.70472  1579.08661  254.00000  21.38895             15.18876
1189.62644  670.67241   174.00000  22.20814             10.25416
1190.16744  1785.34884  215.00000  21.72850             12.74462
1191.85950  303.60744   242.00000  21.93626             14.20694
1184.07143  1325.92857  42.00000   8.17829              6.47339
1191.04178  828.42061   359.00000  26.42153             17.64308
1192.88492  965.40873   252.00000  21.35270             15.74306
1190.59585  277.62176   193.00000  16.54475             14.96667
1191.37912  705.06593   182.00000  16.63220             14.45685
1192.65700  1214.16425  207.00000  21.49167             12.26862
1192.06977  1509.14950  301.00000  21.89270             17.52706
1193.32609  1300.95652  322.00000  22.46844             18.79928
1195.09552  413.63881   335.00000  22.69828             18.85181
1187.92308  1317.03846  26.00000   8.08165              4.05150
1193.03846  442.83761   234.00000  19.89256             14.97842
1201.14444  477.52500   360.00000  29.26920             15.86165
1200.79646  807.35988   339.00000  24.05796             19.28765
1199.87815  1135.12605  238.00000  18.18952             16.69532
1201.27027  1568.02317  259.00000  23.68728             13.96375
1197.76344  917.80108   186.00000  17.46531             13.90961
1203.79377  991.56031   257.00000  22.43086             14.67604
1200.27841  1119.76705  176.00000  18.37111             12.35215
1199.92617  1068.80537  149.00000  14.84918             12.89359
1200.98788  1427.35152  165.00000  20.28425             10.91455
1211.49309  731.46544   434.00000  30.90845             18.34747
1204.50935  1272.81308  214.00000  20.05944             13.65573
1206.90404  1149.71717  198.00000  17.21029             14.93944
1207.09722  903.29167   144.00000  17.22118             10.78718
1208.87640  1052.11236  178.00000  18.23249             12.51631
1213.09434  1074.76604  265.00000  26.28446             13.10751
1209.61667  551.67917   240.00000  20.60851             14.96746
1210.51500  530.56500   200.00000  19.32487             13.31758
1209.85034  960.88435   147.00000  15.21405             12.32280
1208.64138  1098.71034  145.00000  15.93662             11.60038
1212.31855  1182.32258  248.00000  20.61961             15.50426
1212.69634  1364.88482  191.00000  19.51711             12.47791
1214.28333  894.88889   180.00000  19.88712             12.43286
1217.08456  445.47794   272.00000  28.74085             12.12267
1213.75000  1197.88636  176.00000  15.81329             14.23844
1219.40476  1140.62381  210.00000  19.74094             13.61512
1216.57767  325.56796   206.00000  18.62080             14.09703
1219.64706  935.57276   323.00000  25.11317             17.31890
1217.81900  1404.97285  221.00000  22.45216             12.74526
1221.30476  592.04444   315.00000  21.53355             18.73071
1220.25118  1230.94313  211.00000  17.37284             15.49637
1220.21053  1532.96241  266.00000  21.41893             15.98264
1223.60000  1466.88519  270.00000  21.84037             15.83776
1220.83929  464.93750   224.00000  18.65943             15.42007
1223.73050  505.31915   282.00000  22.25205             16.28768
1221.44388  839.43367   196.00000  18.47738             13.55323
1221.35461  822.07092   141.00000  14.27375             12.59563
1222.62097  759.62097   124.00000  15.10148             10.87730
1225.59829  1561.76068  234.00000  18.31611             16.37685
1230.72759  387.46207   290.00000  28.12750             13.18694
1229.21459  645.56223   466.00000  30.19112             20.08025
1229.08527  1005.73256  258.00000  22.87838             14.41902
1224.89916  1440.07563  119.00000  14.02162             10.96888
1230.79295  559.56388   227.00000  21.51599             13.46730
1226.87302  1119.50794  126.00000  14.36819             11.28959
1229.42213  1264.19672  244.00000  19.39979             16.05873
1234.21522  1174.46194  381.00000  22.93536             21.86952
1229.61798  1299.88202  178.00000  16.71374             13.74826
1230.76226  1400.49811  265.00000  23.14184             14.87825
1234.13889  527.48264   288.00000  23.69599             16.28114
1229.48611  810.29167   72.00000   10.69312             8.69633
1234.35204  1048.51020  196.00000  17.49707             14.28966
1233.76190  1433.10119  168.00000  15.72226             13.86419
1233.38889  1136.40000  90.00000   10.92308             10.49740
1238.03780  455.18213   291.00000  24.27969             15.48010
1242.25503  1495.50671  298.00000  25.49399             15.84811
1237.78537  38.14146    205.00000  19.45954             13.46707
1241.84768  961.33113   151.00000  17.84854             11.56580
1240.25500  990.92500   200.00000  17.78079             14.69126
1241.09552  1023.74627  335.00000  23.09346             18.58035
1243.10646  1314.70722  263.00000  26.54806             12.67873
1247.33788  570.84642   293.00000  28.46903             13.32936
1243.14122  837.83206   262.00000  21.51808             15.59860
1244.55152  871.17576   165.00000  19.42282             10.93170
1244.51531  686.39796   196.00000  18.89658             13.35749
1254.82328  809.92516   481.00000  31.46520             20.58411
1246.34555  479.07330   191.00000  16.51357             14.87353
1253.59559  1235.69853  408.00000  25.91935             20.25230
1250.40351  929.08187   171.00000  18.89158             11.73481
1248.92411  1138.68304  224.00000  20.59541             13.86108
1251.69935  914.17647   153.00000  18.14833             11.03710
1250.00613  1071.85890  163.00000  16.05652             12.98717
1259.47884  1092.98664  449.00000  35.38699             16.91483
1256.00563  650.79155   355.00000  26.08341             17.72329
1252.25899  1196.97842  139.00000  13.86054             12.76964
1257.64333  330.09667   300.00000  23.92372             16.05587
1257.77434  523.82743   226.00000  21.75765             13.31724
1257.80455  355.11818   220.00000  19.70590             14.35672
1260.25000  416.29508   244.00000  22.00673             14.12123
1257.50459  707.67890   218.00000  19.61592             14.26700
1259.33529  964.74706   170.00000  17.44667             12.52915
1258.68627  893.68627   51.00000   8.49872              7.67441
1264.26786  613.85268   224.00000  18.82539             15.32163
1263.61074  870.92617   149.00000  15.88236             12.13145
1263.89032  1034.14839  155.00000  14.89488             13.40766
1270.70992  1138.16412  524.00000  33.61313             21.75887
1268.39781  1377.48905  274.00000  21.28304             16.43751
1269.11675  369.25888   197.00000  19.55889             12.97859
1270.93884  464.55352   327.00000  26.21922             16.12169
1269.23113  1393.25472  212.00000  17.74044             15.45740
1270.29297  1067.07812  256.00000  22.69393             14.57574
1268.82320  686.70718   181.00000  16.66442             13.94641
1272.92754  660.96014   276.00000  20.85202             17.39015
1271.69935  77.35294    153.00000  14.76323             13.30560
1273.03676  995.76471   136.00000  16.20918             10.72665
1273.68072  972.69880   166.00000  17.76025             11.94553
1280.32197  574.60985   264.00000  27.91649             12.73386
1280.50000  1255.21721  244.00000  25.98834             12.23468
1278.89130  724.44348   230.00000  19.38265             15.14348
1280.83069  517.59788   189.00000  17.80997             13.71873
1278.85424  1344.16949  295.00000  22.50654             16.80814
1283.87241  1111.12759  290.00000  21.45506             17.25951
1282.44737  1160.39912  228.00000  18.89321             15.62379
1282.87008  696.99213   254.00000  20.46358             15.89120
1285.04854  873.76214   206.00000  25.30530             11.05062
1284.37241  1358.87586  145.00000  15.10291             12.33338
1289.69805  1187.77597  308.00000  26.71903             14.78462
1288.96237  1173.06989  186.00000  21.61032             10.98927
1285.68617  1321.14362  188.00000  18.42737             13.04552
1290.70142  144.54028   211.00000  17.31410             15.70165
1289.33953  1295.37209  215.00000  17.33380             15.80111
1292.84762  1224.44127  315.00000  20.68533             19.46642
1290.42708  595.91146   192.00000  18.12102             13.51548
1291.12791  807.22093   86.00000   11.29338             9.67245
1296.46296  831.42130   216.00000  19.08734             14.70690
1295.68382  1140.55147  136.00000  13.45932             12.93986
1295.17518  1250.45255  137.00000  19.32797             9.03546
1297.74274  953.50622   241.00000  22.09307             14.43883
1299.35915  798.11972   142.00000  16.01132             11.47407
1298.65079  920.42857   63.00000   9.98672              8.04813
1300.47414  1062.00862  116.00000  13.63356             11.16847
1300.85897  1074.97436  78.00000   11.63693             8.51224
1305.50251  418.32663   199.00000  18.07627             14.10811
1308.12466  672.13821   369.00000  23.82343             19.88473
1311.17686  489.75328   458.00000  29.77504             20.46295
1306.93750  520.31731   208.00000  17.22858             15.43357
1308.13158  813.55789   190.00000  17.55316             13.85557
1307.89904  855.65865   208.00000  17.22556             15.45287
1310.05856  781.58559   222.00000  19.84862             14.30129
1309.59218  976.58101   179.00000  17.86192             12.78775
1309.58434  1307.62651  166.00000  16.91796             12.60965
1310.30000  619.66667   270.00000  25.81284             13.50741
1309.19412  1247.26471  170.00000  17.68872             12.44364
1307.68831  1262.38961  77.00000   10.49469             9.37296
1311.11650  994.16019   206.00000  17.54583             15.03722
1310.54839  1036.81452  124.00000  14.74246             10.77067
1311.42038  1116.54140  157.00000  15.22001             13.23259
1313.84483  169.43678   174.00000  15.87008             14.00375
1313.66071  1057.70536  112.00000  12.46599             11.45536
1315.02101  1142.48739  238.00000  18.47052             16.45897
1318.71472  543.94172   326.00000  20.97547             19.99506
1317.45106  601.65532   235.00000  19.28670             15.68164
1317.15530  843.02273   264.00000  20.33642             16.58146
1319.14610  429.62662   308.00000  24.63829             16.18218
1320.85623  573.15974   313.00000  21.12476             19.05186
1317.74453  1027.63504  137.00000  14.54053             12.02172
1326.25070  912.38028   355.00000  28.51053             16.01863
1319.52299  366.28161   174.00000  16.03825             14.09747
1320.99111  402.64889   225.00000  17.36706             16.66995
1322.77778  637.75926   216.00000  19.14545             15.40181
1321.99083  1271.07798  218.00000  19.25310             14.50623
1323.02242  207.55605   223.00000  22.43883             13.22151
1321.76596  739.51773   141.00000  14.54525             12.38655
1320.71765  1128.04706  85.00000   12.24756             8.85061
1317.27273  1256.50000  22.00000   6.40248              4.30644
1322.99130  1199.85217  115.00000  14.83300             9.89755
1328.90159  889.33333   315.00000  26.66740             15.41005
1330.54867  1315.97640  339.00000  24.20989             17.94303
1330.18207  1373.59664  357.00000  24.05002             18.96770
1329.12121  755.00000   264.00000  21.81666             15.78391
1328.39823  1238.45575  226.00000  17.96974             16.12142
1329.73932  276.97863   234.00000  21.37014             14.01099
1330.35075  362.86567   134.00000  14.38135             12.11858
1335.09449  1171.59055  254.00000  21.68673             15.20239
1334.46377  670.18116   276.00000  21.18674             16.78239
1336.69925  802.90602   266.00000  23.92713             14.32313
1336.03433  1348.62232  233.00000  21.37328             13.91598
1336.53684  416.64561   285.00000  21.34063             17.42410
1339.72414  728.51411   319.00000  23.04877             17.79253
1338.54146  1285.84390  205.00000  16.91734             15.51210
1340.66154  347.07692   195.00000  17.32202             14.40974
1340.15205  374.33918   171.00000  17.17012             12.72860
1339.12632  953.89474   190.00000  18.72623             12.97329
1344.37594  1419.54135  266.00000  25.70260             13.22467
1343.42222  214.08889   180.00000  16.10703             14.49546
1342.42152  1257.75336  223.00000  18.24283             15.66327
1346.11696  1008.28070  171.00000  18.11124             12.05253
1343.84314  1209.88235  51.00000   9.35156              6.93470
1348.64964  1399.10949  274.00000  19.98110             17.53915
1350.16571  435.53143   175.00000  15.12309             14.85712
1348.16049  1233.72840  81.00000   10.47554             10.01130
1358.08524  836.40956   481.00000  26.19212             23.93208
1353.71154  236.09135   208.00000  18.13291             14.66950
1351.73034  608.73034   89.00000   11.34557             10.04296
1351.82727  1278.74545  110.00000  12.41266             11.33510
1357.07048  928.37885   227.00000  19.76231             15.12912
1355.21212  1194.06061  66.00000   9.82964              8.55957
1363.77597  1046.28571  308.00000  24.20732             16.34373
1364.80064  675.72026   311.00000  20.68711             19.33412
1364.66225  871.66887   302.00000  21.72505             17.87055
1365.54412  726.55515   272.00000  21.75202             16.33309
1364.89823  1290.30531  226.00000  18.89579             15.28317
1364.73462  1385.29231  260.00000  21.82256             15.21504
1368.77855  969.19377   289.00000  20.96924             17.65605
1370.19524  953.35238   210.00000  18.14132             14.76000
1370.22530  1258.52174  253.00000  20.06271             16.18580
1374.16071  774.09821   224.00000  21.59155             13.23233
1372.76647  305.00000   167.00000  17.17194             12.41258
1373.67279  894.55882   272.00000  20.43587             17.02820
1374.38197  269.03004   233.00000  19.90443             15.09075
1372.91549  785.81690   71.00000   12.82912             7.03730
1376.66023  799.00386   259.00000  19.08775             17.37225
1377.63830  1216.38298  235.00000  20.80125             14.38823
1379.39088  1009.20847  307.00000  20.92482             18.74018
1380.38272  435.54321   243.00000  18.54308             16.72739
1378.74074  1176.37778  135.00000  13.61980             12.72623
1382.46823  726.68562   299.00000  22.94252             17.04381
1388.64901  941.50993   302.00000  23.15372             16.75611
1385.10000  1094.75714  280.00000  22.91800             15.59685
1387.70281  295.07229   249.00000  21.07727             15.20736
1387.47191  334.86517   178.00000  19.14046             11.96023
1389.43750  1065.37500  352.00000  28.37396             15.93071
1392.41473  995.42248   258.00000  20.68244             15.95321
1395.00505  823.80808   198.00000  19.05429             13.34170
1399.55882  1207.92017  238.00000  18.61840             16.38572
1404.77953  1036.67717  254.00000  24.40958             13.30068
1404.97203  400.32168   286.00000  21.59129             17.03496
1407.58915  913.55039   258.00000  18.95760             17.47312
1402.87895  1145.26842  190.00000  23.13450             10.70156
1408.43793  1355.97241  290.00000  22.12773             16.73567
1417.72022  1063.03324  361.00000  22.86254             20.92913
1412.03636  798.72727   165.00000  18.18542             11.57665
1416.21754  421.66316   285.00000  19.86018             18.35700
1415.21687  894.24096   249.00000  20.50028             15.49714
1416.00459  1386.52752  218.00000  17.76588             15.65434
1421.33708  1122.66292  89.00000   11.18849             10.27661
1430.90206  873.55155   194.00000  17.38184             14.24329
1429.02454  1154.47853  163.00000  19.33689             10.87718
1443.22261  811.92933   283.00000  23.07891             15.80546
1456.72797  1145.61303  261.00000  21.49783             15.57023
1457.41455  1348.78545  275.00000  20.53574             17.15272
1462.85926  1293.05185  270.00000  22.04721             15.68833
1464.61695  850.28475   295.00000  20.62854             18.22788
1467.46250  1129.98333  240.00000  20.28198             15.26917
1469.76923  1156.65587  247.00000  20.52327             15.60908
1478.78545  1199.24727  275.00000  19.25864             18.29498
1479.90391  1306.82918  281.00000  22.45972             16.05861
1475.38393  449.63393   112.00000  12.75642             11.25927
1481.21176  1255.41569  255.00000  20.29751             16.30383
1493.34868  1216.54934  304.00000  22.89518             16.97785
1504.87681  1170.89130  276.00000  22.48625             15.74876
1503.18403  473.60764   288.00000  24.61354             15.26258
1517.73649  90.41892    148.00000  14.35977             13.45010
1534.04000  82.87200    125.00000  14.13421             11.40387
1576.29258  138.47598   229.00000  19.96242             14.63861
1579.74286  116.77857   140.00000  15.96441             11.31791
1633.14474  122.12500   152.00000  14.70808             13.47250
1682.97605  199.41317   167.00000  16.58463             13.10139
1729.52907  227.54070   172.00000  16.37637             13.40801
1821.07547  399.31447   159.00000  16.18978             12.65175