# Filename: Nuclei_416_ctrl_60x_009.npz
# Voxel size (nm): (108, 108)
# Area quantity: voxels
# Num nuclei detected: 890
Y           X           AREA       MAJOR_AXIS_LENGTH    MINOR_AXIS_LENGTH
8.11688     722.95455   154.00000  15.15989             12.99965
13.27742    522.92903   155.00000  19.25635             10.60296
13.68790    757.28025   157.00000  15.87618             12.80169
14.24828    798.08966   145.00000  14.73370             12.61238
17.28667    892.39333   150.00000  18.15945             10.54724
21.73859    811.02075   241.00000  18.79587             16.57490
23.72143    1116.04286  140.00000  14.35053             12.70287
37.93471    791.54296   291.00000  22.06239             16.89461
54.11067    420.69565   253.00000  20.02057             16.20510
68.60800    841.73600   250.00000  20.67372             15.66855
69.02727    1035.33636  110.00000  12.22619             11.56672
75.72165    1061.19588  97.00000   12.04681             10.26605
81.09341    1025.97802  182.00000  15.38366             15.12250
87.89266    883.90395   177.00000  17.08851             13.36455
90.24088    1237.98540  137.00000  15.82735             11.15818
92.92523    984.68224   107.00000  12.98346             10.65541
99.75847    1291.34322  236.00000  20.84088             14.46418
98.90909    963.66029   209.00000  17.15735             15.52620
104.03600   875.64400   250.00000  22.87841             14.02519
101.86047   1006.69767  129.00000  15.65214             10.52701
104.91509   1030.44340  106.00000  14.62559             9.28586
110.32707   417.11278   266.00000  23.19381             14.72290
108.07059   887.98824   85.00000   13.34135             8.22031
121.98246   1043.02339  171.00000  17.21944             12.79587
124.06452   901.71613   155.00000  16.72526             11.87870
127.43939   1010.34343  198.00000  16.34495             15.50587
136.29500   1089.62000  200.00000  19.24421             13.34906
137.92963   1312.48519  270.00000  20.95162             16.98362
142.82192   418.03653   219.00000  20.83479             13.45563
136.58140   843.00000   43.00000   9.25109              6.05285
145.01058   921.73016   189.00000  17.34066             14.09030
144.07087   1032.74803  127.00000  15.28363             10.61381
145.87302   1181.86508  252.00000  20.47819             16.07619
145.60000   1111.19459  185.00000  17.28858             13.65971
151.71915   1211.80851  235.00000  19.69615             15.26392
155.90385   973.56731   208.00000  20.73139             12.88367
158.96154   1325.97802  182.00000  17.79673             13.04569
165.24797   418.09350   246.00000  20.59253             15.28678
163.67788   1125.24519  208.00000  18.24106             14.54526
163.97794   1232.56618  136.00000  15.17544             11.47293
166.00000   902.46667   180.00000  16.96279             13.57045
171.74194   1005.10968  155.00000  15.30451             12.94646
175.53723   1032.46277  188.00000  19.53022             12.36909
174.11220   1177.00000  205.00000  16.99302             15.48096
175.87179   1057.46154  195.00000  17.98717             13.85384
188.55000   1043.16429  140.00000  14.12413             12.63249
193.11940   994.28358   201.00000  17.36041             14.84336
196.44275   980.87023   131.00000  15.88398             10.53907
195.91803   1061.06557  61.00000   9.27283              8.39216
204.66234   1251.67532  154.00000  15.71553             12.53792
217.64183   1339.15759  349.00000  21.94509             20.66176
217.13659   1269.28293  205.00000  19.70555             13.28872
224.82323   979.44444   198.00000  18.32352             13.85284
230.00746   1189.20149  134.00000  13.30379             12.84700
235.41176   1539.07647  170.00000  16.43019             13.21301
249.47826   1295.70186  161.00000  16.99883             12.11212
248.41748   1192.00971  103.00000  14.31703             9.17994
253.53165   1202.75316  158.00000  17.33021             11.66146
259.01176   1530.06667  255.00000  19.60779             16.80226
264.83186   1030.31416  226.00000  20.81201             14.05982
265.08134   947.06220   209.00000  18.47841             14.43440
266.24113   1350.51064  141.00000  15.63696             11.50394
274.13333   1295.45000  120.00000  15.25737             10.07744
277.90000   1367.86429  140.00000  14.85095             12.08164
284.25253   928.15657   198.00000  19.53561             13.15248
291.60902   1512.40977  266.00000  22.41457             15.17627
296.73810   1372.04762  168.00000  15.92313             13.66212
302.75691   1308.89503  181.00000  16.39553             14.10100
310.25725   1227.97101  276.00000  22.18945             16.09589
309.94662   1069.80427  281.00000  21.34058             16.95061
321.03977   1268.93182  176.00000  16.30719             13.76667
330.48837   1095.43189  301.00000  22.70632             17.01088
329.86667   1326.31795  195.00000  18.24825             13.64879
334.89904   1308.31731  208.00000  18.39624             14.57199
337.20913   1495.24715  263.00000  23.43893             14.37349
340.40336   1216.48739  238.00000  24.46681             12.78180
365.04959   1495.43802  121.00000  15.19332             10.14136
369.46429   1235.26190  168.00000  15.86831             13.62885
380.55556   1118.25778  225.00000  21.30594             13.51616
382.68148   1497.93333  135.00000  15.01766             11.46354
397.89640   1094.81982  222.00000  18.19048             15.60379
397.86735   1262.81633  196.00000  19.46738             12.92821
409.81533   1288.70035  287.00000  23.94694             15.39822
411.76796   1495.35359  181.00000  18.43459             12.52710
430.73224   1501.01093  183.00000  16.58963             14.13155
430.20492   1655.33607  122.00000  15.19101             10.60468
437.24739   1062.76655  287.00000  25.12706             14.81239
434.76687   1313.85276  163.00000  15.91607             13.18447
439.88623   1325.14970  167.00000  16.74251             12.84581
452.77665   1333.95431  197.00000  18.33978             13.69570
467.36260   1035.86260  262.00000  22.08930             15.34068
484.26820   1020.21839  261.00000  20.66705             16.13405
484.63243   1662.47027  185.00000  17.85077             13.28507
486.01538   1621.53846  195.00000  16.36895             15.14069
486.59783   1597.35870  184.00000  16.21907             14.52852
495.38686   1647.25547  137.00000  15.93874             11.13320
499.31897   1568.35345  232.00000  20.00857             15.12350
503.55689   1603.29940  167.00000  16.48794             12.93663
518.94516   1296.69032  310.00000  24.53976             16.52168
522.70412   1391.91011  267.00000  19.14085             17.86447
523.06557   1658.47951  244.00000  19.63314             15.92932
522.89498   1692.31050  219.00000  21.30211             13.20400
530.75096   1747.78161  261.00000  20.54320             16.38822
534.94750   1461.04500  400.00000  27.63499             20.60560
539.68238   1008.18610  403.00000  30.35396             17.15850
536.74163   1367.62201  209.00000  20.44047             13.31979
536.04225   1441.92958  284.00000  20.63550             17.82182
533.21250   1515.41875  160.00000  17.95113             11.40741
535.94643   1358.16071  56.00000   10.98770             6.54303
538.65939   1646.66376  229.00000  21.44936             13.65762
551.80800   1316.37200  250.00000  24.30860             13.26227
548.87440   1670.16908  207.00000  17.84207             14.87676
546.16667   1719.61111  108.00000  13.78684             10.03437
551.52913   1274.09223  206.00000  17.80930             14.76021
553.54211   1647.06316  190.00000  18.08023             13.48224
554.19512   1562.42439  205.00000  16.86399             15.48053
561.41194   851.25672   335.00000  26.76496             17.15840
561.90667   1368.52444  225.00000  18.80457             15.38482
559.73009   1402.88053  226.00000  21.77154             13.58047
562.33862   1586.63492  189.00000  16.90774             14.25773
568.32990   1280.51031  194.00000  21.18675             11.74547
570.57895   1575.07018  171.00000  17.63916             12.50603
575.05238   1409.48095  210.00000  19.42404             13.83130
567.77778   1566.07407  27.00000   6.41913              5.70820
574.40361   1357.45181  166.00000  16.94830             12.56082
573.07115   1479.23715  253.00000  20.76467             15.75823
576.47260   1546.51370  146.00000  15.19319             12.25533
576.23404   1433.44681  47.00000   9.27909              6.42122
580.43258   1456.83708  178.00000  16.45594             13.84128
584.05970   1518.52239  268.00000  27.36878             12.69932
583.18732   787.19597   347.00000  28.86873             15.48905
583.23853   1563.61468  218.00000  19.19031             14.56798
583.72973   1231.93436  259.00000  20.28291             17.06401
586.10345   926.26207   290.00000  25.37149             15.38775
588.29442   1307.19797  197.00000  17.16284             14.81225
598.12832   1459.12832  226.00000  17.27151             16.64411
599.70149   1286.02239  134.00000  14.66843             11.76387
605.03209   1299.09626  187.00000  17.41794             13.72071
610.39203   991.29568   301.00000  29.49756             13.57261
603.95238   1227.25397  189.00000  20.14592             12.06046
611.20349   1276.12209  172.00000  16.81313             13.13787
616.04348   1332.01932  207.00000  19.70769             13.60788
618.50000   1537.76296  270.00000  21.75224             16.07714
618.11638   1430.63362  232.00000  19.80349             14.94619
620.30469   1262.51562  256.00000  20.47888             16.10904
619.45679   1454.65432  243.00000  17.97927             17.22442
622.56875   1470.05625  160.00000  16.26678             12.58434
624.69588   1383.80928  194.00000  16.70442             14.91051
625.49289   1499.71564  211.00000  17.73389             15.14876
627.63291   1408.35443  237.00000  18.64351             16.50829
626.43046   1297.68874  151.00000  16.79793             11.61139
630.86731   1181.44660  309.00000  25.74701             15.51283
635.80952   752.18452   336.00000  23.50987             18.64374
632.62844   1345.92202  218.00000  18.00944             15.46691
634.88215   1013.33670  297.00000  22.95150             16.68082
641.65000   1760.09063  320.00000  29.39467             14.18491
643.04955   1468.97748  222.00000  18.00054             16.28037
649.97744   993.74812   266.00000  25.03686             14.71677
649.88559   1314.22881  236.00000  20.62284             14.79431
652.56554   1054.78652  267.00000  20.55006             16.59425
656.86331   1678.59712  139.00000  14.30379             12.40280
658.29412   1694.93529  170.00000  18.81794             11.64621
661.57194   1532.65827  278.00000  20.62453             17.19591
668.11404   1163.35673  342.00000  32.69800             14.45744
665.04270   1221.56228  281.00000  22.22803             16.82783
667.49235   1508.27041  392.00000  25.67505             19.71917
670.91209   1064.19048  273.00000  23.42312             15.63086
666.56071   1290.41071  280.00000  20.77469             17.42240
670.49706   1559.78235  340.00000  21.24895             20.92017
680.13043   1140.92490  253.00000  22.27770             14.91284
682.19247   1363.89121  239.00000  18.58350             16.53439
677.99174   1626.95041  121.00000  14.91410             10.65500
681.88732   1609.38967  213.00000  18.05847             15.14781
688.44912   1116.64561  285.00000  29.82665             12.46401
695.70085   1060.90598  234.00000  19.25314             15.50902
703.01887   1320.78616  318.00000  25.24778             16.65638
699.39431   1298.44715  246.00000  19.44695             16.35976
707.20290   1275.77536  276.00000  19.86399             18.00521
708.97046   1194.42616  237.00000  19.41562             15.58304
725.71171   1127.18919  111.00000  15.73344             9.06819
725.77273   1136.01515  132.00000  15.97500             10.80822
728.52189   1306.72054  297.00000  21.07070             18.10205
728.75155   2019.27329  161.00000  15.53742             13.22837
733.55642   1377.21790  257.00000  19.67845             16.74373
731.62874   17.12575    167.00000  17.34313             12.25637
732.99425   1247.42529  174.00000  16.63071             13.35530
737.41573   1283.83521  267.00000  20.01143             17.45616
735.09091   984.48485   33.00000   7.32359              5.67174
745.67442   1035.84496  258.00000  22.94466             14.32583
746.04348   974.44664   253.00000  23.24448             14.13534
748.87500   13.20089    224.00000  19.20195             14.95817
754.78829   1208.86036  222.00000  19.96158             14.29931
756.34909   1119.57091  275.00000  23.58383             15.05234
757.47416   1332.27660  329.00000  26.63094             15.98904
769.98406   919.94024   251.00000  20.23591             16.05198
776.22449   1298.36735  294.00000  25.47113             15.14054
774.00877   1171.30702  228.00000  20.61081             14.18924
776.50628   1021.30962  239.00000  20.86360             14.62431
778.25532   1222.31489  235.00000  17.77063             17.05687
777.25806   1119.20968  62.00000   9.48672              8.36896
784.99317   964.50512   293.00000  21.35056             17.97919
783.22523   1271.77928  222.00000  20.13940             14.11736
787.41631   608.61373   233.00000  18.68982             16.07073
787.53472   2023.99306  144.00000  16.80013             11.66486
791.85130   1093.43123  269.00000  23.59951             14.60158
791.02793   1189.27933  179.00000  18.71792             12.28065
799.19828   1331.41810  232.00000  20.08648             14.93678
801.60684   1066.94444  234.00000  21.23569             14.32444
804.07213   146.56393   305.00000  24.52055             15.93750
796.09091   1199.90909  22.00000   5.50282              4.97265
808.01103   1010.83824  272.00000  25.45738             14.00950
807.92672   1301.00862  232.00000  18.78577             15.91922
808.57028   103.55020   249.00000  19.65411             16.16202
809.94150   640.99443   359.00000  33.37407             14.70866
804.76364   908.72727   55.00000   10.26656             6.83342
809.70642   122.50000   218.00000  19.61953             14.31774
810.27350   1325.30769  117.00000  14.97308             9.96924
813.64080   204.94540   348.00000  24.14447             18.53332
821.56159   36.87681    276.00000  20.84807             17.18812
825.71014   241.25000   276.00000  20.89303             16.94084
823.29078   1157.51773  141.00000  14.58065             12.38982
821.84615   890.75000   52.00000   8.56264              7.77041
825.99448   1188.74586  181.00000  18.01535             12.88384
830.53676   1018.75000  272.00000  24.68656             14.74566
834.71713   965.44622   251.00000  20.04301             16.00582
828.56410   1079.07692  39.00000   7.63673              6.47536
834.52500   1200.74583  240.00000  19.27324             16.03222
838.04511   1278.51504  266.00000  25.29285             13.49222
835.15823   890.69620   158.00000  15.56041             13.58132
833.17857   1149.97143  140.00000  13.88080             13.00769
838.00658   983.08224   304.00000  21.67143             18.36983
837.20755   1263.53774  212.00000  18.02625             15.01203
838.60690   670.37931   290.00000  25.52953             14.54859
840.42199   1321.45035  282.00000  25.95982             14.53367
842.99645   279.14894   282.00000  22.45117             16.25117
840.69880   1134.78313  166.00000  18.07479             11.80419
841.48472   1235.99563  229.00000  17.66545             16.57845
843.83486   899.66972   109.00000  14.54182             9.66625
843.34409   1144.68817  93.00000   11.19121             10.79204
844.08257   1288.78899  109.00000  14.38866             10.07849
841.67273   1343.83636  55.00000   9.47386              7.37774
849.81771   15.13542    192.00000  17.61142             14.03316
853.46383   928.36170   235.00000  19.79343             15.53895
855.98944   1242.05986  284.00000  21.40404             17.18023
859.08101   1036.58380  358.00000  25.40770             18.38317
853.70270   1143.06306  111.00000  12.78097             11.14999
857.78528   915.26380   163.00000  15.37763             14.03970
856.50000   1270.20000  30.00000   6.64113              5.73196
865.20641   850.25979   281.00000  23.87553             15.13069
867.39572   710.09091   187.00000  17.12250             14.00269
868.89904   876.33654   208.00000  18.96909             14.03178
868.68449   1100.37433  187.00000  18.85326             12.63528
868.86735   726.27551   196.00000  16.98138             14.91520
871.40239   71.37450    251.00000  19.57132             16.38242
872.74346   831.07853   191.00000  15.86437             15.35845
874.55859   1297.76172  256.00000  19.64674             16.75872
875.40850   1321.41830  306.00000  23.76977             17.68088
874.02994   50.76647    167.00000  15.92747             13.36691
878.42751   893.51301   269.00000  22.87691             15.76815
877.98837   797.46899   258.00000  20.40599             16.32746
880.62069   302.47893   261.00000  22.44631             15.02334
882.71685   989.93548   279.00000  21.70103             16.59389
884.73991   874.96413   223.00000  18.14931             15.75064
887.93103   1060.71552  232.00000  19.28870             15.61904
886.80296   818.04926   203.00000  17.64709             14.69691
890.80321   948.40964   249.00000  23.28466             13.67429
893.04403   753.19497   159.00000  17.48158             11.73584
892.46914   6.68519     162.00000  15.30076             13.54241
896.27000   1129.00500  200.00000  18.85074             13.55444
896.27273   1233.36898  187.00000  16.14613             14.95442
901.59140   141.39785   186.00000  16.22673             14.66637
902.87931   781.93103   290.00000  19.82179             18.86434
901.99648   1171.54930  284.00000  28.83458             13.26940
902.29412   1217.42781  187.00000  16.78244             14.26655
904.43478   1047.84058  207.00000  16.65386             16.07321
910.03623   982.46014   276.00000  32.59486             12.09953
906.48523   117.64979   237.00000  19.22040             15.72558
908.21212   1306.32468  231.00000  18.99124             15.52124
908.52511   1191.73516  219.00000  19.10254             14.66232
912.24107   889.48214   224.00000  18.77157             15.44507
914.12203   692.54576   295.00000  19.94969             18.93259
914.57542   714.34637   179.00000  19.00151             12.30134
911.86047   734.24806   129.00000  13.24940             12.46244
915.48066   757.28729   181.00000  17.00385             13.71357
916.79775   875.69663   89.00000   15.40716             7.45007
920.60000   173.06333   300.00000  28.90866             13.35109
917.95960   787.17677   198.00000  18.40307             13.85469
924.14337   935.73118   279.00000  22.83404             15.86558
921.47668   1120.87565  193.00000  18.66832             13.16709
915.95833   1225.87500  24.00000   6.51599              5.02634
926.38667   721.88889   225.00000  21.51697             13.53691
928.87193   834.66757   367.00000  23.30187             20.56201
929.95631   1285.78641  206.00000  17.48620             15.11755
929.13014   816.86301   146.00000  14.54961             12.79600
933.01689   863.44595   296.00000  21.27496             18.00077
932.40299   16.47761    201.00000  18.31641             14.14608
934.74320   333.16918   331.00000  22.79929             18.69737
941.59532   1172.83612  299.00000  35.75125             11.90271
935.35374   689.61224   294.00000  20.45308             18.42540
935.65812   1247.44444  234.00000  18.13357             16.48691
943.33588   984.64504   262.00000  25.68605             13.17561
941.36306   1262.64331  157.00000  15.06995             13.33882
947.00513   1205.94872  195.00000  17.11181             14.58854
947.88462   239.75214   234.00000  19.84630             15.03291
948.97925   84.96680    241.00000  22.94056             13.43730
951.42060   213.39485   233.00000  20.58323             14.45495
955.58278   1272.11921  302.00000  22.21214             17.36955
953.98010   41.86567    201.00000  18.96921             13.73789
955.41910   704.83024   377.00000  25.77599             18.81131
958.37544   349.60702   285.00000  20.96605             17.50289
960.42802   1113.88716  257.00000  22.04439             14.86854
957.92063   895.17989   189.00000  16.68577             14.55634
959.95473   734.41152   243.00000  21.41828             14.55671
963.47248   18.78899    218.00000  20.69572             13.54806
963.32812   799.77604   192.00000  17.79699             13.82902
972.41667   1281.64773  264.00000  20.29028             16.78281
969.92647   83.51471    68.00000   9.79525              8.88943
974.36765   1153.03922  204.00000  17.10045             15.22302
982.49286   910.03929   280.00000  23.88373             15.14122
981.20611   952.56870   262.00000  20.39801             16.61756
981.46377   1108.90217  276.00000  20.06432             18.08281
981.43636   86.17091    275.00000  22.17761             15.98726
981.93886   679.06550   229.00000  19.96859             14.70319
984.62825   870.23420   269.00000  23.59177             14.79820
985.49822   226.22064   281.00000  21.77770             16.58578
987.70774   1184.50716  349.00000  27.12326             16.70454
985.53714   1299.31429  175.00000  18.99214             11.76552
989.53419   345.09402   234.00000  20.97690             14.30011
991.75641   807.20513   234.00000  21.07922             14.17086
989.73984   100.23577   123.00000  13.23515             11.88139
993.86010   628.63212   193.00000  16.43518             15.03802
994.52190   1267.77007  274.00000  20.37298             19.13915
1002.71672  764.15358   293.00000  24.69731             15.16550
1002.56780  250.35169   236.00000  19.26111             15.69113
1004.73208  603.29057   265.00000  20.66498             16.43876
1004.53211  1303.52294  218.00000  19.67233             14.20628
1006.55676  120.76757   185.00000  18.13666             13.07049
1009.25668  67.58289    187.00000  16.15076             14.96232
1011.63081  1212.81686  344.00000  28.05728             15.88995
1006.72414  941.03448   29.00000   7.46153              5.02949
1016.77885  450.41667   312.00000  23.24870             17.27868
1017.63030  1138.59394  165.00000  15.16933             13.97920
1022.30233  916.27907   301.00000  24.10290             17.06883
1018.85185  124.11111   189.00000  19.95323             12.13537
1021.10127  141.39662   237.00000  19.41321             15.74022
1022.92537  482.14179   268.00000  24.74024             13.87533
1026.26797  771.32026   153.00000  14.50941             13.52101
1034.30435  1146.80936  299.00000  26.81194             14.33356
1030.69474  1295.97895  190.00000  16.49143             14.79289
1035.93966  1332.51724  232.00000  22.50556             13.26866
1037.97491  825.82079   279.00000  21.66021             17.05282
1043.60510  1134.17516  314.00000  31.57992             13.45823
1037.32000  778.98000   150.00000  14.36893             13.34650
1036.46565  43.96183    131.00000  15.73748             10.59811
1044.40590  251.68635   271.00000  19.63165             17.66594
1043.36036  18.61712    222.00000  17.60075             16.14203
1045.97826  112.49130   230.00000  18.18659             16.14244
1048.06829  340.31707   205.00000  19.37060             13.50823
1053.01618  1237.17799  309.00000  22.48573             17.94284
1051.34874  508.03361   238.00000  22.39147             13.67520
1054.02247  160.55056   178.00000  17.72792             12.81712
1052.48214  858.81250   112.00000  12.46165             11.45163
1057.68571  89.78776    245.00000  20.25886             15.49232
1060.51528  126.12227   229.00000  20.36715             14.70918
1062.26070  892.24514   257.00000  23.39120             14.17736
1060.44091  42.69091    220.00000  20.27532             13.89504
1064.47752  826.09636   467.00000  35.96831             18.67631
1070.34043  1275.91064  235.00000  23.01114             13.47951
1073.15809  787.20956   272.00000  21.26058             16.96891
1071.70430  1254.27957  186.00000  17.98922             13.49220
1072.33333  851.37566   189.00000  15.90877             15.15972
1068.82456  1232.17544  57.00000   9.05100              8.04634
1075.15481  338.33891   239.00000  19.73305             15.86186
1075.76821  1132.36424  151.00000  15.16032             12.71088
1082.01608  1306.12219  311.00000  21.38529             18.76291
1081.27500  1284.63333  240.00000  20.11312             15.76392
1089.69814  1348.86223  646.00000  39.19432             25.52774
1082.92778  37.31111    180.00000  15.87279             14.49675
1084.72659  1118.05993  267.00000  24.40759             14.08552
1082.93007  125.71329   143.00000  15.02336             12.14062
1082.92994  350.27389   157.00000  17.07612             11.83404
1084.68627  144.26961   204.00000  22.45691             11.90849
1086.02151  863.53226   186.00000  16.64910             14.26585
1088.26471  781.25000   204.00000  17.87947             14.65979
1090.62712  328.50424   236.00000  21.60462             14.01567
1094.25103  794.50617   243.00000  19.08860             16.75284
1095.78715  875.73494   249.00000  19.62799             16.44492
1088.90698  1377.41860  43.00000   9.15440              6.53783
1095.53623  96.04831    207.00000  17.40250             15.25541
1101.27304  180.97611   293.00000  23.66619             16.73789
1099.27004  1298.93671  237.00000  20.94519             14.54227
1098.74434  311.64078   309.00000  31.21554             12.87960
1102.45631  35.92718    206.00000  18.65126             14.11793
1098.00000  1373.25000  48.00000   8.26640              7.34847
1103.73973  64.00457    219.00000  22.67464             12.52105
1107.78966  747.64138   290.00000  24.42397             15.35378
1103.47449  283.96429   196.00000  17.06305             14.66654
1105.13364  343.23963   217.00000  21.08693             13.15763
1104.40870  1572.15652  115.00000  12.82046             11.55467
1110.54007  1207.56794  287.00000  25.24764             14.69897
1106.11828  1001.25806  93.00000   12.23269             9.72509
1111.50951  508.91635   263.00000  20.69225             16.28988
1109.68449  226.44920   187.00000  18.54008             13.05932
1114.81928  301.26506   249.00000  19.38435             16.45482
1111.98718  130.69231   78.00000   10.65688             9.30347
1118.05369  110.26846   149.00000  16.58491             11.85751
1121.47619  1015.84982  273.00000  21.33639             17.07279
1125.40404  1275.44444  297.00000  28.40242             13.51099
1129.86468  1193.06193  436.00000  34.66936             16.30310
1119.68966  13.64655    116.00000  13.44626             11.03301
1120.21739  123.40000   115.00000  12.86320             11.53238
1121.78616  714.31132   318.00000  22.64766             18.10859
1127.72013  917.87107   318.00000  32.41993             12.81931
1120.50495  1567.19802  202.00000  17.09519             15.08517
1120.88288  185.31532   111.00000  12.82443             11.13688
1125.08092  238.24277   173.00000  15.95111             13.83490
1124.59843  665.13780   254.00000  19.72282             16.44654
1125.98986  960.80743   296.00000  24.92650             15.48910
1123.50413  161.52893   121.00000  12.78153             12.05458
1123.40196  1372.20588  102.00000  13.12222             10.09343
1127.21364  448.40000   220.00000  19.65972             14.35985
1127.35152  578.77576   165.00000  17.05693             12.41702
1127.89655  558.65862   290.00000  26.05239             14.25322
1130.73764  1042.20532  263.00000  23.00755             14.94358
1131.89734  691.19392   263.00000  21.72460             15.52435
1130.07273  257.19394   165.00000  15.95628             13.27501
1135.40067  460.21212   297.00000  26.59092             15.45858
1134.85043  783.78632   234.00000  23.18530             12.93056
1132.98770  901.50000   244.00000  18.47307             16.98955
1129.24051  1122.20253  79.00000   11.90756             8.45661
1131.73973  304.94521   146.00000  13.95986             13.30532
1134.71784  934.43568   241.00000  19.66667             15.73690
1137.14729  1232.58140  258.00000  21.10269             15.78608
1136.10442  820.52610   249.00000  18.94341             17.41295
1134.41111  418.17222   180.00000  16.34025             14.02679
1135.73837  589.94186   172.00000  16.89592             13.07516
1135.98718  71.58333    156.00000  14.92893             13.36233
1136.17333  676.15333   150.00000  15.95216             12.19091
1136.08392  164.27972   143.00000  16.74248             11.00555
1137.25333  223.02667   225.00000  19.97315             14.67998
1135.02128  1127.81915  94.00000   12.89463             9.39930
1134.66372  1576.46903  113.00000  16.33302             9.13471
1139.55959  54.95337    193.00000  18.58304             13.25903
1139.14493  250.42029   138.00000  16.80944             10.66849
1138.80973  662.11062   226.00000  20.63043             14.06243
1141.17188  1393.93750  320.00000  28.01604             14.84643
1139.86977  1166.00000  215.00000  19.13134             14.37341
1140.38514  295.47973   148.00000  14.91412             12.79570
1141.43503  202.89831   177.00000  15.77729             14.30566
1147.47500  275.87187   320.00000  24.09336             17.10226
1143.55111  1104.51556  225.00000  20.48469             14.11802
1142.44792  1578.76042  96.00000   13.58802             9.25043
1144.96450  476.14793   169.00000  15.96955             13.59210
1147.01255  182.51464   239.00000  21.28954             14.91358
1146.50000  78.85616    146.00000  15.46388             12.02009
1147.82432  814.70270   148.00000  13.98632             13.90661
1149.37681  145.76812   138.00000  15.96106             11.15748
1149.08867  1446.94089  203.00000  18.55696             13.95451
1146.34091  439.65909   44.00000   8.04339              6.97680
1155.89153  534.12434   378.00000  25.13079             20.21386
1153.61783  37.40764    157.00000  17.65015             11.42180
1152.04545  360.52841   176.00000  18.08051             12.61147
1150.69737  1571.93421  76.00000   10.61186             9.24299
1152.39344  18.27869    122.00000  13.93661             11.17751
1154.42601  235.10314   223.00000  26.75390             10.71136
1152.72727  1564.06818  44.00000   8.51125              6.55907
1156.66531  1156.89388  245.00000  22.21459             14.07447
1159.02667  929.70000   150.00000  18.35702             10.44198
1159.39344  1121.49180  305.00000  23.13684             17.26872
1162.17241  1306.07210  319.00000  25.26701             16.16579
1160.87402  595.46063   254.00000  22.60048             14.67854
1161.85417  516.94444   144.00000  16.41025             11.33248
1163.46445  687.46919   211.00000  18.89980             14.33632
1165.30645  304.39919   248.00000  18.63700             16.98283
1163.62097  70.65323    124.00000  14.97138             10.72934
1162.06742  1564.86517  89.00000   12.80184             8.97793
1166.98712  426.06009   233.00000  21.28486             14.42136
1169.33835  637.69925   266.00000  20.43102             16.69501
1168.30409  277.98830   171.00000  18.64162             11.71255
1172.32121  472.99394   330.00000  26.34132             16.04988
1167.50000  2.68000     50.00000   8.62554              7.48075
1170.73684  734.78947   190.00000  17.09704             14.24376
1170.78302  772.47170   106.00000  13.43622             10.36977
1173.34574  157.19149   188.00000  17.25047             13.92712
1172.76190  761.90476   147.00000  14.65176             12.96784
1175.09143  222.57714   175.00000  16.28854             13.83444
1176.60474  325.25296   253.00000  21.96867             14.77701
1175.85463  413.49339   227.00000  20.84408             14.33844
1173.17045  172.47727   88.00000   12.03925             9.31478
1177.07634  542.99237   262.00000  20.47855             16.50215
1172.88889  1434.06349  63.00000   9.61595              8.30959
1179.61390  1232.08880  259.00000  19.69477             16.88933
1180.82547  289.68868   212.00000  21.67258             13.38110
1178.58369  352.54936   233.00000  19.56409             15.42853
1182.38111  947.13681   307.00000  26.60576             14.92911
1178.55556  1500.57143  126.00000  13.94633             11.53754
1182.57241  139.94483   145.00000  19.62179             9.52299
1183.26699  1462.63107  206.00000  16.50839             15.92090
1187.51867  774.27386   241.00000  22.97378             13.53695
1186.05348  53.35829    187.00000  17.54110             13.64588
1186.14973  374.54011   187.00000  17.69333             13.53605
1189.40667  517.32333   300.00000  22.02248             17.52174
1185.57746  1519.94366  213.00000  23.68166             11.76089
1188.58863  269.86288   299.00000  25.22981             15.31018
1191.14235  302.59431   281.00000  27.16961             13.51026
1187.56000  193.53000   100.00000  12.65061             10.19265
1192.28272  1490.72775  191.00000  17.71170             13.83745
1192.74172  446.95364   302.00000  25.36107             15.33228
1195.27988  595.02915   343.00000  23.45810             19.62703
1192.10127  202.98734   79.00000   11.29147             9.05297
1193.30657  479.61314   137.00000  14.91550             11.78247
1193.54634  616.98049   205.00000  18.04714             14.61229
1196.12658  1125.60759  158.00000  17.77364             11.40110
1198.28685  1218.40239  251.00000  20.56451             15.66883
1197.93204  165.87379   206.00000  18.36466             14.53361
1199.00000  20.99237    131.00000  14.06998             11.92424
1198.46535  927.64356   101.00000  12.87114             10.12029
1203.22488  634.60766   209.00000  18.98958             14.16747
1199.98515  1517.01980  202.00000  23.37658             11.18614
1202.51942  102.39320   206.00000  18.35944             14.46739
1202.61340  384.11856   194.00000  18.25516             13.64532
1207.25182  1197.77007  274.00000  25.58193             13.85416
1199.50000  327.50000   32.00000   6.32456              6.32456
1205.82143  227.59375   224.00000  18.66239             15.31783
1207.83815  40.07514    173.00000  16.02026             13.83796
1209.13839  351.02232   224.00000  19.04166             15.32834
1211.70645  486.33548   310.00000  24.80480             16.31368
1211.36765  546.36176   340.00000  23.48522             19.03680
1210.32323  617.45455   198.00000  20.23871             13.35616
1211.31364  410.73636   220.00000  21.58015             13.11946
1207.50000  363.97917   48.00000   9.35347              6.54515
1211.98701  1120.50000  154.00000  16.17295             12.15877
1207.00000  582.11538   26.00000   6.00788              5.54700
1212.32065  805.39674   184.00000  16.22229             14.46359
1212.10909  1517.47879  165.00000  16.70367             12.60263
1208.42857  328.94286   35.00000   7.29952              6.04368
1215.63563  268.28340   247.00000  18.95690             16.78959
1214.62676  27.77465    142.00000  15.14267             12.06072
1213.56250  130.06250   160.00000  16.72138             12.20124
1216.73333  255.20000   105.00000  15.40681             9.05091
1215.74847  307.03067   163.00000  17.14557             12.14517
1220.08980  325.55102   245.00000  20.00587             15.64930
1217.24031  1503.90698  129.00000  15.71588             10.52474
1216.85393  1534.49438  89.00000   11.91849             9.49221
1225.70656  792.69112   259.00000  22.75114             14.53124
1222.38506  355.50575   174.00000  19.75139             11.37114
1226.51562  449.64062   192.00000  16.72147             14.98017
1227.10345  645.22069   145.00000  14.86734             12.56698
1233.91373  478.47059   255.00000  23.37974             14.20521
1231.43243  15.48649    148.00000  14.55380             12.98659
1227.96078  306.43137   51.00000   8.55958              7.57488
1235.06522  741.44565   276.00000  23.57280             15.22314
1229.80000  340.53333   75.00000   12.05215             7.99716
1232.75000  388.95139   144.00000  14.59135             12.83005
1229.89655  430.51724   29.00000   6.25879              5.89242
1235.11600  1511.72800  250.00000  19.07639             17.35662
1230.97778  1539.65556  90.00000   12.53477             9.14550
1234.34167  441.45000   120.00000  13.90503             11.39922
1232.45588  621.94118   68.00000   11.57098             7.63291
1237.95425  187.56863   153.00000  16.75870             11.84891
1234.98438  212.71094   128.00000  17.39746             9.38684
1238.25352  379.51408   142.00000  14.64225             12.65617
1247.02653  505.92308   377.00000  27.61628             17.49799
1239.16901  105.71831   71.00000   10.62267             8.48669
1243.50000  787.11009   218.00000  18.04090             15.49968
1239.24096  1535.96386  83.00000   11.40234             9.35128
1245.68914  307.07865   267.00000  21.20306             16.09774
1244.90244  52.29878    164.00000  16.39371             12.84076
1246.98016  366.24603   252.00000  21.08345             15.39859
1248.75258  69.91237    194.00000  16.98505             14.60877
1247.57778  662.75556   180.00000  17.29505             13.31355
1251.88615  964.87077   325.00000  24.52747             17.45313
1254.73077  948.39615   260.00000  26.80851             12.74733
1251.50000  290.84746   118.00000  14.03205             10.82763
1256.54671  115.83737   289.00000  22.99179             16.45838
1256.77178  612.53942   241.00000  18.55799             17.03852
1259.17883  1208.08759  274.00000  20.66492             17.02397
1253.87143  1555.71429  70.00000   11.45365             7.97409
1260.39556  314.96889   225.00000  19.02164             15.10013
1259.09524  667.77619   210.00000  20.53412             13.23320
1258.54400  90.62400    125.00000  13.62097             12.06317
1261.41948  224.71161   267.00000  19.36716             17.62965
1259.43165  149.40288   139.00000  14.40811             12.28941
1261.42282  274.49664   149.00000  14.27647             13.34140
1261.88281  419.36719   128.00000  14.22501             11.71633
1261.80193  464.89855   207.00000  17.77710             14.82958
1262.43972  1551.24113  141.00000  16.56085             10.88226
1259.39535  411.65116   43.00000   8.56692              6.42104
1263.51220  289.92683   164.00000  15.30030             13.65277
1264.86383  48.01702    235.00000  24.42380             12.46519
1266.16019  388.78641   206.00000  17.35348             15.16023
1267.15700  582.96587   293.00000  20.14838             18.59846
1266.38547  1535.01676  179.00000  17.51811             13.50385
1271.93580  526.94815   405.00000  28.19808             19.25370
1269.51256  337.35176   199.00000  23.26283             11.15059
1272.09459  688.40541   222.00000  18.98549             15.03701
1272.11765  843.45588   272.00000  30.32487             11.64813
1275.81159  264.67633   207.00000  17.43788             15.14870
1276.63043  402.66304   184.00000  17.83586             13.23244
1278.19000  1567.66000  100.00000  14.07314             9.06860
1277.09615  488.86538   52.00000   8.62282              7.70474
1287.32595  984.04430   316.00000  36.85611             11.16264
1278.13699  1557.82192  73.00000   12.25035             7.61565
1278.62687  376.23881   134.00000  19.21395             9.37354
1282.93776  670.04564   241.00000  18.75938             16.95071
1280.93388  23.10744    121.00000  14.70880             10.53251
1284.71809  206.15426   188.00000  17.11191             14.14208
1286.56585  98.23902    205.00000  19.95640             13.25464
1287.22404  274.56831   183.00000  19.41375             12.01088
1286.75581  603.48837   172.00000  18.33138             12.10918
1288.14793  296.74556   169.00000  18.04702             11.94547
1288.79870  376.78571   154.00000  15.54914             12.68027
1288.43443  37.06557    122.00000  13.73440             11.42398
1292.18433  66.97696    217.00000  19.64746             14.07833
1290.72472  194.69101   178.00000  20.60077             11.27454
1293.13469  332.86939   245.00000  19.29293             16.44841
1292.00897  653.31390   223.00000  17.83841             15.92127
1295.90370  1205.17407  270.00000  21.88304             15.91724
1292.78986  255.19565   138.00000  16.75708             10.57602
1293.54622  316.07563   119.00000  14.26686             10.69021
1295.38426  392.57407   216.00000  18.81002             14.80089
1298.60684  1161.98860  351.00000  25.81942             18.04486
1295.43868  632.41038   212.00000  21.26652             12.77081
1296.06803  593.89116   147.00000  16.31481             11.49558
1300.14872  44.53333    195.00000  20.25537             12.41647
1302.24390  305.76829   82.00000   11.28952             9.29224
1304.78333  457.36667   60.00000   9.84696              7.73747
1309.65678  568.01271   236.00000  23.18555             13.41642
1309.96454  677.26241   282.00000  23.59533             15.66257
1308.82609  477.73043   230.00000  19.56581             15.02990
1310.30178  799.68047   169.00000  15.75209             13.84102
1311.39000  419.02000   300.00000  26.37079             15.08757
1313.30196  90.18824    255.00000  21.01113             15.52395
1313.17355  253.78926   242.00000  20.20425             15.59564
1318.37011  1186.77224  281.00000  23.44660             15.40914
1316.70404  123.68610   223.00000  17.48356             16.44701
1312.11429  369.31429   70.00000   10.31059             8.72530
1316.52174  108.82609   184.00000  20.83183             11.59365
1315.69500  499.62000   200.00000  18.94067             13.46150
1318.88066  186.22222   243.00000  18.23023             17.09447
1316.64000  390.04000   125.00000  15.36359             10.36634
1318.35345  1530.13793  232.00000  19.54413             15.17256
1321.44939  357.34008   247.00000  21.64560             14.57542
1323.10599  556.39631   217.00000  23.11795             12.11358
1322.73837  465.60465   172.00000  16.11894             13.75289
1324.25893  57.47321    112.00000  14.33109             10.02674
1330.51266  534.75316   316.00000  24.08563             16.74284
1327.13750  664.73750   160.00000  16.49719             12.41925
1329.98485  1551.80303  132.00000  17.18803             10.07586
1329.02273  1534.77273  44.00000   8.70950              6.55334
1334.63636  65.73160    231.00000  21.55668             13.90093
1333.87795  88.23228    254.00000  19.42477             16.66441
1334.83598  228.33862   189.00000  16.94047             14.32000
1336.39205  494.67045   176.00000  17.23820             13.10144
1337.90625  281.91071   224.00000  19.06329             15.03216
1336.69714  555.62286   175.00000  17.29991             13.15440
1338.03553  115.32487   197.00000  19.40494             13.02763
1335.00000  339.75610   41.00000   7.23137              7.16525
1343.04869  1019.65543  267.00000  23.51319             14.48367
1347.30851  1035.13121  282.00000  24.34137             15.25843
1349.19697  315.24242   264.00000  21.64739             15.77145
1345.95429  604.22286   175.00000  16.25131             13.71479
1348.00000  641.11152   269.00000  20.66999             16.82190
1344.71717  1518.97980  99.00000   12.09437             10.50615
1348.24896  154.84647   241.00000  22.08978             13.96737
1349.69841  783.24339   189.00000  17.32483             13.90853
1351.19672  478.34426   244.00000  19.63890             16.32844
1353.29961  696.98054   257.00000  21.28264             15.55272
1352.29240  563.65497   171.00000  17.40418             12.58505
1354.96757  493.23243   185.00000  18.23239             13.19526
1356.53571  77.10119    168.00000  15.65045             13.71559
1357.63158  1518.28070  114.00000  14.54538             10.12290
1358.03571  612.72449   196.00000  17.18213             14.70072
1361.07692  242.64904   208.00000  17.38171             15.33357
1358.70312  1530.89062  64.00000   10.59134             7.76029
1362.67556  1126.84889  225.00000  19.40596             14.86739
1363.68826  273.57490   247.00000  19.11590             16.51053
1364.25466  1540.13043  161.00000  16.16936             12.82078
1365.45045  231.07207   111.00000  15.24975             9.49576
1364.50000  49.47619    84.00000   11.34746             9.83615
1368.31308  19.77103    214.00000  19.98545             13.79581
1375.29688  1107.51953  256.00000  22.43317             14.55031
1377.36332  518.42561   289.00000  25.52865             14.65252
1376.23558  1511.72596  208.00000  17.59568             15.15544
1379.45902  218.92623   244.00000  19.05643             16.31907
1380.52018  87.15247    223.00000  19.43257             14.64518
1380.74667  1544.03111  225.00000  22.05197             13.73501
1386.14815  445.78519   270.00000  27.86140             12.66847
1386.05242  365.67742   248.00000  21.28750             14.99799
1383.84733  19.51908    131.00000  13.96704             12.00736
1384.00758  68.48485    132.00000  15.00671             11.23874
1390.39000  715.47500   200.00000  17.22089             14.83366
1392.96026  97.87417    151.00000  16.06848             12.01167
1394.36416  59.95954    173.00000  16.49313             13.46894
1396.92075  1093.10189  265.00000  23.14269             14.69586
1396.38953  202.75581   172.00000  15.04714             14.59745
1399.75294  297.07843   255.00000  19.29182             17.10377
1401.46786  753.56429   280.00000  20.20866             17.84974
1406.37264  1510.51415  212.00000  24.16886             11.67078
1405.26087  186.67391   184.00000  16.17381             14.66022
1407.92179  420.10056   179.00000  16.56172             13.80623
1411.99615  581.16538   260.00000  19.50381             16.98761
1414.31414  743.89529   191.00000  19.88686             12.47550
1415.87713  489.24573   293.00000  24.75854             15.15983
1414.84444  1155.36889  225.00000  20.78352             13.86045
1419.57500  267.60000   360.00000  28.00611             17.13823
1416.19632  177.23313   163.00000  16.36350             12.73808
1417.14504  403.82443   131.00000  14.62232             11.44583
1417.71014  1494.18116  138.00000  15.64570             11.35248
1422.42857  124.07937   126.00000  16.05414             10.03104
1429.90000  602.25600   250.00000  20.62910             15.69050
1431.04673  1529.00935  107.00000  14.71197             9.28309
1436.24444  379.31111   270.00000  29.92554             11.86475
1434.22989  40.97126    174.00000  16.91443             13.13535
1435.28889  93.09444    180.00000  17.85664             13.12910
1438.32174  436.93478   230.00000  23.59922             12.53986
1440.58413  680.66667   315.00000  27.94751             14.45797
1442.40645  1515.00000  155.00000  18.69358             11.36877
1439.52761  168.07975   163.00000  16.48025             12.67113
1443.00766  323.50192   261.00000  19.86415             16.85198
1442.73370  2012.87500  184.00000  16.55284             14.20079
1445.77723  390.28713   202.00000  20.85800             12.72944
1447.01619  244.38057   247.00000  20.62123             15.28693
1445.56542  220.62617   214.00000  19.44082             14.05903
1445.33333  1494.27778  36.00000   7.76847              5.86654
1459.07447  449.95745   376.00000  34.52369             14.55720
1453.21387  1501.67052  173.00000  16.56595             13.38803
1454.73333  107.32857   210.00000  21.52970             12.48417
1456.40000  199.17949   195.00000  20.29838             12.28039
1459.39896  159.37824   193.00000  17.04671             14.50653
1460.68153  1524.29936  157.00000  16.47242             12.52147
1463.99242  1151.50379  264.00000  21.13153             15.93176
1461.90526  1512.08421  95.00000   13.15400             9.26905
1469.83333  310.56838   234.00000  27.41371             10.94836
1469.01389  71.85417    144.00000  15.94471             11.84064
1470.90404  113.12626   198.00000  18.16046             14.31455
1475.22520  247.62735   373.00000  31.62806             15.63113
1476.25000  386.03390   236.00000  19.17632             15.77800
1476.70354  325.63274   226.00000  22.79330             12.79720
1481.30660  202.52358   212.00000  18.23786             15.00376
1480.18333  364.86667   120.00000  13.89350             11.01583
1481.76596  145.90071   141.00000  17.04663             10.57273
1486.48205  27.97949    195.00000  16.95026             14.66480
1490.88739  89.92342    222.00000  21.29660             13.71248
1495.57868  1503.67259  394.00000  27.89845             18.05193
1495.46746  135.56213   169.00000  15.92809             13.58705
1497.56790  1904.58025  243.00000  21.24804             14.61489
1502.81057  341.85903   227.00000  24.94387             11.69036
1499.48896  554.35962   317.00000  25.54288             15.96490
1505.49458  260.07581   277.00000  20.00863             17.88479
1504.04405  315.12335   227.00000  19.22947             15.15839
1508.30544  203.97908   239.00000  19.08604             16.18762
1509.16456  167.39873   158.00000  14.67669             13.77753
1510.22222  218.98611   216.00000  18.12969             15.22920
1514.98438  391.66295   448.00000  34.22891             17.44142
1511.33333  15.34314    102.00000  12.08061             10.88465
1512.86628  91.86047    172.00000  15.13760             14.56739
1513.39175  596.93814   194.00000  18.00495             13.93601
1511.42254  1886.85915  142.00000  15.53237             11.76625
1516.12851  143.61044   249.00000  20.62701             15.41432
1518.27333  655.50000   300.00000  21.82967             17.66588
1521.53977  294.16477   176.00000  17.93753             12.60100
1524.17808  605.23744   219.00000  21.53396             13.39708
1528.24747  161.25253   198.00000  19.89505             12.78908
1527.14423  49.59135    208.00000  19.27465             13.79598
1527.04938  87.50617    162.00000  15.24021             13.88641
1528.06468  317.12935   201.00000  19.65295             13.15102
1527.11058  179.48558   208.00000  20.48443             12.94206
1527.75301  1879.56024  166.00000  15.94816             13.32071
1533.94574  683.86434   258.00000  23.55468             14.04527
1535.27686  255.32231   242.00000  21.70608             14.26805
1540.26446  1499.00000  242.00000  23.69124             13.37023
1540.01333  472.40444   225.00000  18.06294             15.93539
1541.86957  197.92271   207.00000  20.44897             13.06480
1541.29902  439.05392   204.00000  17.24653             15.24383
1541.11921  106.17219   151.00000  14.43536             13.33737
1541.88235  68.60131    153.00000  15.71160             12.49949
1541.74839  334.85161   155.00000  17.64916             11.22756
1542.73604  627.52792   197.00000  20.13687             12.50293
1546.98814  561.01186   253.00000  25.54915             12.75410
1556.23701  488.04870   308.00000  25.37161             15.50263
1556.46795  1158.93269  312.00000  28.18268             14.83436
1550.80978  1841.13043  184.00000  20.71379             11.47023
1557.77152  588.82781   302.00000  28.04815             14.21751
1558.47059  99.72941    170.00000  17.88659             12.19700
1558.30168  244.23464   179.00000  18.88507             12.12920
1559.71223  527.97122   278.00000  23.63223             15.11418
1561.94239  346.70782   243.00000  23.33321             13.30067
1564.40206  365.23024   291.00000  27.74750             13.50382
1561.58644  653.43390   295.00000  26.09736             14.75630
1564.69268  292.63902   205.00000  20.86178             12.61435
1561.40278  1470.12500  72.00000   10.03006             9.41022
1561.86207  210.79310   29.00000   6.48721              5.84536
1567.41765  132.71176   170.00000  17.06916             12.76231
1567.85938  185.32812   192.00000  17.18750             14.40084
1568.01504  1828.14286  133.00000  15.82881             10.75523
1570.33462  422.76154   260.00000  20.94939             16.31111
1569.17808  1471.71233  73.00000   10.46337             9.17569
1573.64085  51.04930    142.00000  15.95147             11.43801
1581.57627  587.69492   177.00000  17.59844             12.89201
1584.98985  1950.37056  197.00000  16.57276             15.21480
1583.39286  126.26786   168.00000  17.88246             12.08424
1587.60733  445.43717   382.00000  27.63477             18.15606
1585.56287  1446.13772  167.00000  15.48596             13.78658
1588.60274  661.53881   219.00000  21.35573             13.15433
1584.81176  1459.96471  85.00000   12.07681             9.00779
1585.31532  80.55856    111.00000  12.47284             11.49103
1587.63229  505.21076   223.00000  20.68244             13.83306
1586.91270  1471.50000  126.00000  14.71557             10.97313
1587.34337  1764.57229  166.00000  16.39641             12.96825
1593.32661  697.30645   248.00000  22.94813             13.90450
1594.72537  552.95522   335.00000  23.60513             18.26197
1590.51923  70.78846    104.00000  12.73349             10.50558
1590.69277  216.99398   166.00000  18.06678             11.71483
1593.52747  1463.17582  91.00000   13.21764             9.26511
1598.28814  720.16949   236.00000  20.16800             15.58811
1594.94286  1435.85714  35.00000   7.22322              6.19821
1602.91623  55.05759    191.00000  16.62496             14.69446
1602.76351  91.68919    148.00000  15.72930             12.03542
1607.61686  302.18391   261.00000  21.53740             15.79592
1609.78289  1441.69079  152.00000  15.29759             12.69541
1615.77778  323.70940   234.00000  19.18322             15.64290
1615.59864  136.15646   147.00000  15.92431             11.85363
1617.58547  259.00427   234.00000  32.94711             10.49274
1616.09434  346.03774   106.00000  13.53773             10.04699
1625.66346  223.04327   208.00000  20.35248             13.05653
1626.73643  1183.75194  258.00000  19.86201             16.66244
1625.13684  129.67368   95.00000   11.56781             10.72985
1631.29391  706.19713   279.00000  20.25589             17.74277
1632.35361  413.21293   263.00000  19.80620             17.07420
1631.72043  270.29570   186.00000  17.45931             13.60132
1633.79237  327.91949   236.00000  21.83395             13.88245
1638.41304  674.50725   276.00000  22.05352             16.36934
1638.43200  96.50400    125.00000  13.61121             11.76047
1644.53691  136.93960   149.00000  16.48929             11.51814
1645.51121  347.08969   223.00000  19.02098             14.95073
1649.76154  478.72692   260.00000  23.46155             14.29385
1648.86096  212.70053   187.00000  19.32169             12.36987
1651.56951  1183.72197  223.00000  21.28057             13.45089
1660.47510  697.85441   261.00000  24.54881             13.72511
1658.66667  727.12179   156.00000  15.36389             12.95306
1660.19048  390.00000   168.00000  16.74593             12.78180
1665.85714  1905.20536  112.00000  13.56948             10.67089
1668.50000  273.06000   200.00000  19.91854             13.48755
1675.27273  145.60331   121.00000  13.86066             11.31410
1678.86325  208.82906   117.00000  13.31314             11.35189
1683.33221  1207.10403  298.00000  20.83469             18.29668
1683.73500  692.22000   200.00000  18.60735             13.81985
1685.60638  416.96809   188.00000  22.31652             10.85636
1689.44400  357.24000   250.00000  23.71078             13.44125
1687.32308  298.18462   195.00000  17.17885             14.50818
1690.69620  27.19620    158.00000  15.15994             13.33816
1690.68387  194.47097   155.00000  17.10179             11.73828
1692.71386  450.56637   339.00000  26.58129             16.62803
1690.72222  344.00926   108.00000  13.26159             10.38187
1693.08995  11.56614    189.00000  17.03573             14.19953
1697.44970  426.19527   169.00000  16.69907             12.91916
1702.43304  652.58036   224.00000  23.12689             12.35085
1703.24103  727.63590   195.00000  18.96483             13.12474
1705.10638  257.04255   188.00000  16.66066             14.41628
1705.42520  282.22441   254.00000  21.66750             14.97354
1706.60870  234.40761   184.00000  16.91621             13.89851
1712.29024  381.33509   379.00000  23.82471             20.76642
1714.34296  669.05776   277.00000  23.06562             15.58088
1718.74737  205.99474   190.00000  21.60726             11.57399
1725.67532  316.47078   308.00000  33.70469             14.27040
1721.77059  157.69412   170.00000  16.51649             13.19431
1724.59813  1824.29907  214.00000  19.35189             14.30096
1724.24324  296.43243   222.00000  22.96320             12.35203
1726.30734  134.39908   218.00000  19.71545             14.15682
1732.30579  1257.09366  363.00000  30.25954             15.69726
1741.31288  91.52147    163.00000  17.48581             12.05652
1743.69154  645.13930   201.00000  20.03079             12.81942
1745.79630  1804.20370  162.00000  14.77280             13.97324
1760.20346  628.48485   231.00000  25.72141             11.93755
1758.17722  169.54430   237.00000  20.38727             14.86857
1759.34228  1796.84564  149.00000  15.36482             12.38539
1761.80864  132.70370   162.00000  16.76870             12.38798
1766.13214  1305.74643  280.00000  19.28687             18.58325
1768.46341  66.12195    82.00000   11.23343             9.37508
1784.25000  283.95109   184.00000  18.03074             13.04281
1787.83173  266.09135   208.00000  19.51030             13.99424
1795.88417  229.33591   259.00000  20.94503             15.90888
1801.44211  616.14737   190.00000  17.93902             13.56547
1815.37209  616.74419   172.00000  16.23403             13.58465
1817.36628  113.06395   172.00000  17.31387             12.72131
1837.60355  85.24260    169.00000  18.42785             11.71906
1843.04795  56.89726    146.00000  14.36130             13.06725
1900.09259  47.67593    108.00000  12.95995             10.59000
1931.62097  41.99194    124.00000  14.96016             10.60540