# Filename: Nuclei_416_ctrl_60x_004.npz
# Voxel size (nm): (108, 108)
# Area quantity: voxels
# Num nuclei detected: 1755
Y           X           AREA       MAJOR_AXIS_LENGTH    MINOR_AXIS_LENGTH
5.79545     994.02273   88.00000   12.51001             9.00021
8.26119     1095.93284  134.00000  13.43823             12.79853
11.28319    339.24779   113.00000  12.93362             11.17896
13.83243    1075.02703  185.00000  16.43869             14.35949
15.63380    1134.27465  142.00000  15.36865             11.82508
16.56604    752.67296   159.00000  15.59948             13.02469
19.35542    436.05422   166.00000  18.51967             11.50859
19.88050    953.78616   159.00000  16.33630             12.48653
22.40984    718.04372   183.00000  17.68122             13.33636
42.58015    1221.65649  131.00000  14.83931             11.42394
43.20896    1335.73134  134.00000  14.54496             11.84324
51.03125    410.76875   160.00000  21.14427             11.18251
52.32895    761.18421   152.00000  14.68698             13.20755
60.83333    435.93750   192.00000  19.88974             12.92509
81.89412    993.47059   170.00000  16.74121             13.00353
81.59843    566.92913   127.00000  15.37565             10.69770
82.29268    756.33537   164.00000  16.91773             12.37960
83.64773    1195.55114  176.00000  18.19577             12.51818
84.43284    1035.44030  134.00000  13.62846             12.63205
87.26012    977.37572   173.00000  16.09915             13.86128
89.35465    1280.24419  172.00000  16.52240             13.29617
92.97561    1130.97073  205.00000  19.83773             13.27099
100.13364   1044.34101  217.00000  17.92173             15.55552
97.73626    1181.92308  91.00000   11.60099             10.46347
97.88043    1007.31522  92.00000   12.26254             9.96443
108.82000   1248.60500  200.00000  17.11078             14.98688
113.91351   647.91351   185.00000  16.56378             14.28955
116.77358   424.16509   212.00000  18.06452             15.01326
117.16892   482.54054   148.00000  16.49344             11.69534
118.06857   903.97714   175.00000  15.57140             14.46047
122.06364   1095.53182  220.00000  19.76113             14.25605
121.41667   1136.42222  180.00000  18.12203             12.73689
124.23770   749.56557   122.00000  15.32541             10.26349
127.21569   612.53922   204.00000  18.26437             14.31840
124.90000   860.84444   180.00000  19.88323             11.66282
128.44444   1051.76889  225.00000  18.49616             15.50030
130.45714   1305.66857  175.00000  16.33389             13.87001
132.16292   950.45506   178.00000  15.69469             14.49701
135.90909   520.34091   220.00000  21.69397             13.05227
137.17427   893.26971   241.00000  28.31276             11.31331
133.81818   820.60606   132.00000  14.60752             11.67629
141.88028   1223.57042  142.00000  16.54725             11.17182
142.43878   1339.54592  196.00000  17.28230             14.66371
143.51200   861.40800   125.00000  14.97859             11.05405
145.47739   1140.69347  199.00000  17.84023             14.22693
146.85909   588.21364   220.00000  17.45203             16.14414
148.72332   962.13834   253.00000  20.53000             15.71711
147.05882   1101.50226  221.00000  17.41835             16.25762
156.43796   471.47810   274.00000  24.95749             14.34722
155.60311   407.90661   257.00000  20.84075             15.75442
151.30435   147.44928   69.00000   12.08763             7.72841
156.78676   773.32353   136.00000  13.85875             12.54652
159.61029   786.99265   136.00000  18.70905             9.29324
162.66438   1851.32877  146.00000  16.43242             11.46191
162.41406   1150.96094  128.00000  15.14444             11.03985
169.16667   651.95390   282.00000  20.65545             17.91375
167.57988   1269.30178  169.00000  16.47485             13.28397
171.02927   504.89756   205.00000  18.58204             14.15349
168.87209   1316.94186  86.00000   11.29671             9.70609
172.72464   1245.23188  207.00000  17.93621             14.74309
174.75362   731.96618   207.00000  18.80965             14.11033
176.46610   1400.44915  118.00000  13.91901             11.00838
179.98630   1377.13014  146.00000  14.57538             12.79542
182.68545   365.54930   213.00000  17.59259             15.63539
181.62987   693.68182   154.00000  15.41108             12.73653
183.65138   1186.79817  109.00000  13.46794             10.37021
184.79195   1262.22148  149.00000  15.89933             12.23548
186.26619   526.67626   139.00000  14.46666             12.28639
193.02326   796.26163   172.00000  16.11876             13.59935
194.98958   545.18750   96.00000   12.33889             10.24797
196.52667   1345.04667  150.00000  14.44558             13.39349
198.26357   449.71318   129.00000  14.57630             11.28297
204.36036   661.07207   222.00000  24.12307             12.51116
202.47183   431.26056   142.00000  15.99772             11.63480
208.91447   559.03289   152.00000  14.84666             13.13373
212.40559   1258.97902  143.00000  16.12566             11.81362
214.25373   723.93532   201.00000  17.79061             14.58989
227.70103   1294.65979  194.00000  18.45498             13.48416
227.07634   1502.41221  131.00000  14.01303             11.96043
229.92373   596.80932   236.00000  18.98023             16.04099
231.82081   747.02890   173.00000  21.43969             10.40331
230.94253   825.82759   174.00000  16.84266             13.18057
236.68905   761.09541   283.00000  28.21282             13.08512
238.30286   567.74286   175.00000  17.26145             13.04574
239.42593   1439.00000  216.00000  17.19250             16.05652
243.07895   1511.83333  114.00000  13.24332             10.97685
248.10417   522.79167   96.00000   11.79969             10.43548
255.58163   728.61735   196.00000  18.63939             13.45594
255.82967   835.15385   182.00000  17.30875             13.61817
255.28889   206.16296   135.00000  14.53983             12.08565
258.32246   1070.23188  276.00000  22.73489             15.67304
254.62832   1500.36283  113.00000  13.18550             10.92303
260.49495   621.44949   198.00000  18.21352             13.91257
269.81304   1262.04348  230.00000  20.47303             14.39642
269.20354   1531.83186  113.00000  15.38993             9.73541
278.72868   215.73643   129.00000  14.97501             11.54442
283.33641   850.00922   217.00000  17.48053             15.90791
284.19070   1607.75349  215.00000  18.53750             14.82040
284.32576   1508.72727  132.00000  15.37009             10.98869
285.46330   1583.96330  218.00000  19.17042             14.63603
297.85833   1056.34583  240.00000  21.00205             14.67240
303.72881   1236.43644  236.00000  20.18560             14.93188
304.85714   714.65873   126.00000  17.67617             9.24607
309.66304   570.38043   92.00000   12.88947             9.42654
314.66953   1563.54077  233.00000  18.36751             16.14640
316.76404   1029.01873  267.00000  20.56369             16.56037
322.87374   1217.46970  198.00000  20.25798             12.52920
325.77297   1666.48649  185.00000  18.15118             13.04375
328.34981   830.56274   263.00000  21.44629             15.68553
327.55085   863.41102   236.00000  19.40163             15.67310
328.98780   973.99593   246.00000  18.74336             16.74391
328.46483   935.47095   327.00000  24.89830             16.85643
332.37037   849.00823   243.00000  18.65400             16.70431
334.39759   610.03614   166.00000  16.62527             12.75496
345.27419   591.23118   186.00000  21.93983             10.88873
353.52198   381.05220   364.00000  25.42717             19.51503
353.58741   1577.87762  286.00000  22.51055             16.26756
353.60256   707.18803   234.00000  22.45570             13.44310
360.13568   291.75377   199.00000  21.39785             12.04860
367.71601   671.08761   331.00000  27.86230             15.85417
369.29412   1545.35294  153.00000  18.91092             10.59257
370.15766   1588.86486  222.00000  18.74248             15.15187
374.67907   731.14884   215.00000  20.16709             13.63145
376.29412   1680.50490  204.00000  17.99623             14.56851
376.74699   353.72892   166.00000  16.93965             12.58437
383.56842   635.01053   190.00000  17.46396             13.89535
389.56877   723.84387   269.00000  22.21007             15.88065
395.17200   697.60400   250.00000  21.96195             14.73616
395.24691   1696.66667  162.00000  18.78072             11.14164
399.64796   391.55612   196.00000  16.16735             15.52653
400.66553   463.98976   293.00000  25.74657             14.52425
405.94828   638.54741   232.00000  21.21326             13.96009
413.12903   661.57258   248.00000  21.17015             15.14201
411.06604   1689.80189  106.00000  13.10092             10.45603
424.22566   283.62832   226.00000  20.13848             14.38228
425.30151   353.04020   199.00000  19.52925             13.14176
425.01064   648.00532   188.00000  17.18797             13.96566
427.83764   682.23985   271.00000  26.79303             13.09268
428.68182   532.74747   198.00000  18.52248             13.63503
437.07048   784.89427   227.00000  20.00720             14.45211
436.44271   407.08854   192.00000  16.22193             15.05283
439.74194   311.91935   186.00000  17.36481             13.70045
439.90517   1702.12931  116.00000  14.35316             10.32854
442.94182   507.56727   275.00000  22.77089             15.62585
455.53200   287.13600   250.00000  19.10822             16.82390
455.78800   544.90400   250.00000  20.53231             15.51740
455.85455   691.17273   220.00000  19.81947             14.33020
457.16429   228.28571   140.00000  19.82277             9.84188
466.80669   1485.23420  269.00000  21.75523             15.84874
474.61404   413.02105   285.00000  21.29817             17.22251
472.47248   800.74312   218.00000  19.03484             14.75741
473.86726   651.80088   226.00000  19.36922             15.35152
473.75897   248.87179   195.00000  17.47193             14.37094
475.42132   679.92893   197.00000  18.17338             13.87564
481.51872   397.75401   187.00000  20.43846             11.77013
484.96759   630.93519   216.00000  25.03413             10.99264
482.81588   552.24910   277.00000  25.32619             13.93312
487.28399   335.50151   331.00000  25.71073             17.08518
485.14354   295.90909   209.00000  18.51396             14.50840
497.41237   1498.32474  194.00000  18.63528             13.31880
501.68016   398.86235   247.00000  21.34481             14.81375
496.00000   699.50000   28.00000   7.62075              4.74295
498.96429   717.19643   56.00000   9.29757              7.71290
504.23469   306.54592   196.00000  16.53410             15.13188
506.22449   509.22109   294.00000  21.25947             17.82294
510.67451   634.51373   255.00000  22.50548             14.59175
510.94946   826.91697   277.00000  20.06540             17.73942
515.42917   555.17500   240.00000  19.88747             15.51509
516.91739   748.90435   230.00000  20.32324             14.96654
516.77419   114.00358   279.00000  21.19646             16.88804
515.38290   438.27138   269.00000  23.81057             14.63919
516.72430   1491.92991  214.00000  20.25925             13.56489
522.62567   614.38503   187.00000  16.67690             14.41793
519.13333   847.71111   45.00000   7.96194              7.15922
525.14607   765.17978   89.00000   12.47352             9.14073
530.23529   281.09664   238.00000  18.37853             16.49093
530.39827   260.58874   231.00000  18.75848             15.70511
532.88024   649.11976   167.00000  17.40464             12.34035
531.23780   747.51220   164.00000  19.19111             11.05039
534.07059   714.25294   170.00000  19.64782             11.13610
535.72500   624.10500   200.00000  19.53710             13.55711
536.06897   1505.26108  203.00000  18.96333             13.72401
539.96667   844.00000   210.00000  21.32279             12.67719
538.99346   404.81046   153.00000  15.07916             13.11255
541.68142   470.84956   339.00000  26.91218             16.22488
539.55769   52.34231    260.00000  23.05247             14.77035
544.87195   577.11585   328.00000  24.59391             17.02305
549.17409   1567.54656  247.00000  27.36656             11.80994
545.33913   342.19130   345.00000  28.71575             15.75814
544.74757   525.36408   206.00000  19.67662             13.37078
548.54545   224.09091   231.00000  18.42486             16.05874
548.07955   413.68182   176.00000  15.76391             14.48372
549.47154   392.77236   246.00000  19.32060             16.28064
550.71667   509.45556   180.00000  15.89220             14.54455
548.88000   770.08000   50.00000   9.27856              6.88008
564.09402   602.61538   234.00000  21.92249             13.70908
562.60733   862.65445   191.00000  18.96681             13.01582
562.86667   1501.67500  120.00000  13.45460             11.57293
566.89796   342.05102   196.00000  18.13964             13.81697
567.63704   1048.02593  270.00000  26.72635             13.08542
569.68110   443.85827   254.00000  19.17093             16.92524
574.54091   656.20000   220.00000  28.68297             9.93628
573.15289   276.33471   242.00000  20.99491             14.74934
574.73754   398.18605   301.00000  24.41651             15.94422
572.73684   786.11111   171.00000  16.12142             13.65357
575.90476   1488.00000  273.00000  22.01024             16.07962
575.82805   977.80995   221.00000  20.60786             13.71339
576.69478   191.57028   249.00000  19.69938             16.27584
580.52605   544.63275   403.00000  33.19356             16.46498
574.09836   1507.09016  122.00000  13.53070             11.51389
576.04147   1534.44240  217.00000  17.79510             15.66793
581.64138   303.22414   290.00000  19.47899             19.00119
580.25941   1059.56485  239.00000  20.43379             14.91658
584.60088   797.13596   228.00000  22.64791             13.43012
583.21495   763.99533   214.00000  19.37306             14.32666
585.92537   600.05970   201.00000  18.82910             13.59344
592.00000   454.35366   246.00000  23.65207             13.32800
587.41199   1590.61423  267.00000  23.85688             14.33729
592.68699   873.93496   246.00000  25.10810             12.67274
597.19915   285.06356   236.00000  19.94317             15.13592
596.31343   482.89552   201.00000  16.42389             15.75786
596.15789   665.96053   152.00000  19.04423             10.28278
601.54111   894.37666   377.00000  27.60003             17.55460
598.05556   1479.16667  216.00000  19.95702             13.91115
599.93833   1126.43612  227.00000  20.09950             14.38882
605.83380   925.37746   355.00000  30.78041             15.23735
602.48649   518.57297   185.00000  18.18020             12.99262
606.13901   774.63677   223.00000  22.02596             12.98662
612.97118   810.12680   347.00000  29.04159             16.55324
609.35252   595.80935   278.00000  22.53770             15.87135
610.24051   575.08017   237.00000  19.02091             16.02041
611.80556   471.10417   144.00000  15.56538             11.89520
616.89062   408.82812   256.00000  21.60747             15.13945
613.94215   1145.92562  242.00000  19.71326             15.95465
616.96154   461.23077   156.00000  16.84869             11.87822
616.17062   1444.11848  211.00000  18.01390             14.95280
617.16176   689.61765   136.00000  16.30705             10.61762
616.17391   446.60870   69.00000   10.72587             8.17517
621.23451   429.47345   226.00000  19.92581             14.48772
620.79710   1175.58937  207.00000  20.42319             12.93687
623.46352   345.10730   233.00000  19.75572             15.12790
629.08504   490.25220   341.00000  27.23849             16.25940
622.82796   639.54839   279.00000  24.96969             14.54852
626.16034   179.20253   237.00000  18.56323             16.32971
625.26752   502.85350   157.00000  17.35067             11.56487
623.66129   452.32258   62.00000   10.28630             7.66104
627.42675   275.14013   157.00000  14.22095             14.10746
627.79747   1553.97468  158.00000  16.25829             12.42757
634.46647   1064.23615  343.00000  26.05028             18.60359
633.90909   527.56522   253.00000  24.07777             13.45338
633.80612   1443.15816  196.00000  17.91553             13.96466
635.32759   964.81034   290.00000  30.61283             12.48820
635.06977   719.03876   129.00000  14.43515             11.66545
637.64062   662.21875   256.00000  25.92871             12.68837
639.68974   1015.93079  419.00000  28.64848             18.78774
640.06373   1409.51471  204.00000  21.14781             12.31274
638.10623   699.29670   273.00000  28.46687             12.40602
641.28218   732.06931   202.00000  16.92456             15.31099
643.91406   910.78125   256.00000  21.49481             15.47059
644.98182   1095.68485  330.00000  24.06231             18.14868
645.13659   1475.55122  205.00000  20.28774             13.61595
649.02449   1703.86531  245.00000  19.46796             16.25300
645.45312   463.19531   128.00000  15.19570             10.75036
653.29448   564.21779   326.00000  34.01126             12.43814
650.39207   1396.66079  227.00000  19.20734             15.30865
647.90909   1221.52273  176.00000  18.90333             11.84659
650.22819   879.10067   149.00000  15.39179             12.34638
655.31169   1137.81169  308.00000  22.25156             18.17929
651.27749   1438.13613  191.00000  17.58689             13.92426
652.48611   1601.59259  216.00000  18.79965             14.63847
654.65351   446.37719   228.00000  19.43822             15.00621
652.49091   601.10455   220.00000  20.58852             13.75930
652.29032   746.77419   155.00000  15.17168             13.06328
657.90136   1174.59524  294.00000  24.14848             15.85582
656.25106   792.74894   235.00000  26.63245             11.38783
659.61765   233.55042   238.00000  20.44296             15.08435
663.04839   628.35887   248.00000  22.47394             14.15985
661.70408   728.43367   196.00000  17.26993             14.62290
663.60506   805.60253   395.00000  39.41662             13.61273
662.00816   1099.84082  245.00000  21.07917             14.89435
663.76895   1215.42599  277.00000  19.70343             18.20192
660.69318   716.94318   88.00000   11.79434             9.63277
665.51504   1349.55263  266.00000  20.63324             17.15113
661.40299   1119.00000  67.00000   9.73350              8.78793
667.57664   324.01460   274.00000  21.67800             16.50868
664.69159   828.73832   107.00000  12.07310             11.31851
666.26562   912.53125   128.00000  14.83695             11.14542
672.22015   196.32463   268.00000  21.46314             16.03840
669.24551   1560.42515  167.00000  17.38772             12.52026
669.60204   264.93367   196.00000  18.57034             13.53632
673.52521   1259.38655  238.00000  22.63647             13.45691
671.38350   663.14078   206.00000  21.01437             12.56895
673.21693   293.52381   189.00000  16.82248             14.39094
676.49822   608.98932   281.00000  26.16882             14.51134
676.09278   1235.73711  194.00000  16.85070             14.69154
677.09406   223.54950   202.00000  16.49937             15.68078
675.66092   719.28161   174.00000  15.75668             14.08750
682.11145   908.74096   332.00000  25.12060             17.86756
684.20755   929.55031   318.00000  27.27782             15.45685
680.05882   1641.41176  204.00000  19.46564             13.97361
678.98266   458.95954   173.00000  16.28337             13.67754
677.84252   1485.21260  127.00000  14.90106             10.90347
683.08225   1693.19481  231.00000  21.42245             13.89133
681.11374   1745.53555  211.00000  17.96595             14.98474
685.77220   566.08108   259.00000  26.93040             12.57792
681.02618   758.23560   191.00000  18.08869             13.48044
683.59113   336.94089   203.00000  18.02065             14.43086
683.08219   649.99087   219.00000  19.50327             14.47047
690.96875   849.93182   352.00000  29.29368             15.85214
685.30769   1297.29744  195.00000  16.96515             14.76386
684.55204   1512.06787  221.00000  20.35717             13.83689
689.80657   419.58394   274.00000  19.85992             18.09454
689.08745   821.92015   263.00000  19.01062             17.87449
687.56190   1471.22857  210.00000  18.96755             14.22210
691.91854   517.79494   356.00000  24.25550             19.32611
691.70279   1352.05263  323.00000  23.24083             18.29320
695.19494   1086.42278  395.00000  37.04538             14.14319
689.83333   1426.72222  198.00000  19.02953             13.38762
693.30894   687.61789   246.00000  21.16198             14.95190
695.13333   631.41212   330.00000  24.75084             17.13140
696.89474   1196.95666  323.00000  24.79422             16.70206
702.67832   1212.40909  286.00000  31.60558             12.11595
694.58947   723.90000   190.00000  17.23432             14.09724
692.81522   1757.40217  92.00000   12.48443             9.68888
697.12346   756.86420   162.00000  17.15749             12.08999
697.36986   186.20091   219.00000  19.84844             14.25628
700.37945   209.17391   253.00000  26.64547             12.34380
700.38305   1023.17627  295.00000  29.43689             12.98739
696.94208   1133.35521  259.00000  23.26382             14.45578
699.42692   1553.92308  260.00000  20.86273             15.92521
699.56545   710.60733   191.00000  16.33991             15.03715
705.33906   282.45064   233.00000  19.91482             14.97674
698.50000   807.60000   20.00000   6.07119              4.16901
708.01103   1175.00368  272.00000  24.76949             14.38135
708.11157   1295.49174  242.00000  23.27847             13.40636
703.94118   1415.47059  204.00000  20.81861             12.53101
706.91342   345.35065   231.00000  18.67382             15.99641
705.63889   1283.57639  144.00000  14.48606             12.70069
708.58659   302.01676   179.00000  16.42783             14.09036
709.98276   479.15948   232.00000  20.97268             14.19848
711.77941   1246.40074  272.00000  24.43551             14.62369
711.21502   1326.86689  293.00000  28.32552             13.59081
709.42857   126.00529   189.00000  18.65072             13.01952
709.92308   1047.48901  182.00000  17.53881             13.37650
712.67521   1225.77778  234.00000  22.48511             13.47527
715.66667   1159.01688  237.00000  21.97447             14.29285
713.74375   1429.64375  160.00000  15.96179             12.85069
717.51775   699.12722   338.00000  22.11218             19.72459
712.66667   1599.84553  123.00000  13.56472             11.69190
715.60474   76.15020    253.00000  20.47958             15.77869
718.22145   1258.10381  289.00000  27.42415             13.53340
714.29932   1482.76190  147.00000  15.12914             12.38196
718.92164   1551.00746  268.00000  26.79425             13.27545
718.97814   929.03279   183.00000  16.99885             13.87761
719.76271   1169.28814  118.00000  13.86786             11.40453
723.45631   533.01456   206.00000  22.42864             12.61029
722.17339   991.25806   248.00000  19.97217             15.89942
721.40741   1683.82011  189.00000  17.17363             14.19922
721.55755   1044.39928  278.00000  27.61567             13.26356
722.34694   1069.21769  147.00000  19.74446             9.65614
731.80952   1581.86081  273.00000  32.04154             11.64409
722.65741   542.10185   108.00000  14.03909             9.85680
726.86831   1200.72016  243.00000  19.97438             15.53928
722.74843   1408.46541  159.00000  16.11674             12.67389
722.60870   395.68116   69.00000   10.76256             8.22709
731.21338   780.02548   314.00000  26.59586             15.94091
729.22167   891.23153   203.00000  19.94310             13.08097
728.79288   1330.37864  309.00000  26.70974             14.89677
730.18593   483.10553   199.00000  18.16124             14.00829
730.43043   870.64783   230.00000  23.91520             12.31265
729.47368   1538.13534  133.00000  14.13171             12.13792
728.63514   1611.05405  74.00000   11.19176             8.46776
734.41772   12.56540    237.00000  19.34160             15.66864
731.17925   1361.08491  106.00000  14.54572             9.48585
732.48447   1462.26708  161.00000  16.41864             12.58279
735.97059   343.91176   272.00000  22.87716             15.62136
731.47032   1420.93151  219.00000  26.58250             10.90110
733.28571   1775.71429  147.00000  15.56007             12.14677
736.87698   1122.04365  252.00000  21.60786             14.86881
734.89617   1371.66120  183.00000  15.75302             14.81313
735.05769   1389.94231  208.00000  18.06826             14.72990
738.41797   743.69531   256.00000  21.02170             15.86254
734.41406   1550.10938  128.00000  14.50850             11.25584
734.48246   40.22807    114.00000  13.54956             11.20434
735.69767   1264.64535  172.00000  16.66921             13.23358
741.41053   568.72632   475.00000  24.82727             24.40790
737.75785   724.28700   223.00000  18.69731             15.37841
738.19691   1015.27799  259.00000  29.00782             11.89378
737.37931   1803.88506  174.00000  15.44186             14.49062
736.28289   1076.46053  152.00000  15.55259             12.53504
738.99315   548.17123   146.00000  16.13617             12.13523
741.50000   1152.43657  268.00000  19.93075             17.43087
742.74675   274.57792   154.00000  16.09707             12.25996
747.99052   1507.16114  211.00000  17.25051             15.86713
752.05150   1252.94850  233.00000  19.97696             14.95097
751.06329   1330.86920  237.00000  23.21358             13.06131
751.13270   1593.96209  211.00000  16.99560             15.87335
753.89069   992.44939   247.00000  19.96035             15.83032
750.70476   1546.04286  210.00000  19.96433             13.38946
754.29600   1270.08400  250.00000  20.50113             15.57475
751.55838   1376.36041  197.00000  18.65755             13.52405
754.66436   1353.78893  289.00000  26.40484             14.00565
753.57862   1463.35849  159.00000  16.45745             12.35037
754.48824   287.55882   170.00000  14.96558             14.56740
756.43939   272.08333   132.00000  15.05224             11.44894
753.70833   734.91667   72.00000   10.01965             9.12389
758.69697   933.31818   264.00000  29.49758             12.24562
757.04020   973.77889   199.00000  18.56939             13.67306
756.42857   1575.30804  224.00000  22.13958             12.92381
758.55157   1200.57848  223.00000  22.66824             12.59158
764.21318   488.31008   258.00000  25.68950             13.62344
761.95567   574.69458   203.00000  21.27541             12.38705
760.87402   43.71654    127.00000  14.78101             11.97167
762.90000   1155.60667  300.00000  21.38805             18.53777
762.40741   1531.70370  162.00000  16.12351             13.05909
762.64593   1801.98565  209.00000  18.34136             14.55288
765.44251   531.73171   287.00000  19.88656             19.05548
762.60096   1299.21635  208.00000  21.97428             12.15239
762.78231   390.20408   147.00000  14.51160             12.93058
766.47347   1400.90612  245.00000  19.65985             16.07632
764.02830   1489.89151  212.00000  20.53464             13.19574
766.88152   560.24645   211.00000  18.64006             14.50139
769.17797   943.66102   236.00000  18.44559             16.40767
770.66225   738.03974   302.00000  29.71464             13.36042
771.86007   897.41980   293.00000  25.23799             14.98917
773.83229   1086.90566  477.00000  26.88083             23.69438
769.65753   1635.63014  146.00000  17.91769             10.87605
778.21678   814.38462   429.00000  33.48163             16.55791
768.53600   1518.39200  125.00000  13.31137             11.97632
774.26432   382.16740   227.00000  18.94984             15.36423
771.14362   1416.89362  188.00000  16.38503             14.69255
772.22642   1436.92925  212.00000  18.88902             14.85918
778.29717   914.85377   212.00000  22.59836             12.21246
770.72222   1124.80556  36.00000   7.34271              6.23793
774.50769   1243.61538  195.00000  20.26011             12.27468
779.71946   985.03167   221.00000  23.17292             12.23685
776.96296   1283.32099  243.00000  21.64661             14.54526
774.78351   760.47423   97.00000   11.89019             10.39859
780.19802   1464.87624  202.00000  21.60746             11.91254
775.71264   1529.90805  87.00000   12.28145             9.10648
782.02214   233.50923   271.00000  21.50178             16.17787
779.15209   1189.54373  263.00000  19.33605             17.44687
781.03404   49.70638    235.00000  21.38075             14.07645
779.19512   1699.81951  205.00000  17.69573             14.80521
781.97409   1144.07254  193.00000  20.42888             12.05755
780.89773   1500.28409  176.00000  17.04497             13.23945
780.46061   1512.73333  165.00000  16.49351             12.76317
788.75405   780.21683   309.00000  28.54688             14.46979
783.14433   1577.39175  194.00000  18.38653             13.52250
785.50526   1488.13684  190.00000  18.11486             13.39026
787.15038   1561.47368  133.00000  13.91473             12.24652
794.68044   335.36088   363.00000  28.22576             16.48262
786.82051   1320.59829  117.00000  13.96092             10.87043
787.93233   1421.33835  133.00000  13.47359             12.60688
793.43823   155.37995   429.00000  26.45596             21.12732
789.27228   1303.61881  202.00000  20.64539             12.50582
792.33423   1366.54987  371.00000  27.18947             17.60253
796.80952   490.14626   294.00000  28.32895             13.73721
794.66460   1434.46584  161.00000  18.63594             11.10654
791.92353   1728.31765  170.00000  18.80657             11.61308
790.88889   1756.02020  99.00000   14.88704             8.75655
794.34634   1796.83902  205.00000  18.86041             13.95323
789.75676   606.83784   37.00000   8.66094              5.51648
798.23832   656.25234   214.00000  22.13722             12.35220
795.51908   1064.56489  131.00000  16.10609             10.42025
793.98675   1685.74834  151.00000  15.09549             12.74861
795.38384   1409.41414  198.00000  19.43605             13.46026
796.21260   1586.13386  127.00000  16.94251             9.58696
801.07435   670.06691   269.00000  23.68731             14.80281
799.05208   987.56250   192.00000  24.61399             10.13470
796.48352   1472.19780  182.00000  15.99650             14.82974
802.28980   473.25306   245.00000  18.63872             17.08016
802.95556   695.38222   225.00000  22.10510             13.42170
802.39306   1304.18497  173.00000  18.77059             12.45656
802.11921   1534.58940  151.00000  15.16167             12.74483
801.61753   1735.66932  251.00000  23.76053             13.69504
806.25108   1220.40260  231.00000  21.26591             13.99022
803.92308   1447.62130  169.00000  16.84621             12.89440
804.32245   439.77959   245.00000  22.74392             13.97067
801.98425   1096.43307  127.00000  16.17713             10.39630
804.60000   1233.52821  195.00000  18.90676             13.43179
812.96166   883.70607   313.00000  28.55376             14.10296
808.11321   1107.78616  159.00000  18.55669             11.06507
808.91429   1695.90204  245.00000  20.65202             15.16597
810.01653   1021.32645  242.00000  19.48721             15.87431
808.52817   1334.24296  284.00000  27.27903             13.35629
807.90476   1570.61905  189.00000  17.64568             13.69911
811.05263   640.19737   228.00000  18.51924             15.86406
810.49798   724.04858   247.00000  18.26199             17.46113
810.84500   382.03000   200.00000  17.70777             14.42900
811.54054   117.42793   222.00000  18.74332             15.24580
815.17341   936.69364   173.00000  15.14658             14.64483
816.95735   1475.52133  211.00000  17.94081             15.09923
814.85787   1535.29442  197.00000  16.98706             15.01552
815.68198   1811.36396  283.00000  21.21387             17.03875
818.18443   767.36475   244.00000  19.27898             17.11510
816.99061   1644.03286  213.00000  21.82314             12.68670
815.36975   1747.61345  119.00000  14.54049             10.48389
820.92276   184.06098   246.00000  22.74773             13.86035
819.06566   915.53030   198.00000  17.61165             14.38604
819.37313   1557.71144  201.00000  19.27241             13.38371
824.21935   25.74194    310.00000  24.96371             16.03254
821.00395   678.93281   253.00000  22.26681             14.79418
819.12150   1608.44860  107.00000  13.86873             9.88610
823.48580   73.49211    317.00000  23.95949             17.03128
822.78919   466.37838   185.00000  17.70241             13.40879
823.22167   836.65025   203.00000  18.36681             14.16912
824.58333   222.27222   180.00000  16.40308             14.04271
831.30864   1486.12346  243.00000  26.34446             11.85248
824.26667   779.92000   75.00000   11.70299             8.23893
825.68421   977.77368   190.00000  16.69677             14.56682
827.31111   1108.33889  180.00000  18.99823             12.17068
825.72653   1182.55102  245.00000  26.15067             12.20164
827.89831   1070.60593  236.00000  20.75433             14.61474
826.61935   930.47742   155.00000  17.38217             11.45981
830.90674   1513.78756  193.00000  21.97206             11.39833
828.96833   1594.21267  221.00000  17.91796             15.75659
827.77049   351.09016   244.00000  23.71528             13.27723
828.68487   396.40336   238.00000  22.81907             13.54999
830.98367   1340.66531  245.00000  20.44564             15.92532
832.69167   1439.67083  240.00000  23.03822             13.38354
829.82490   1663.80545  257.00000  19.39745             16.92961
831.35593   1456.50424  236.00000  18.44043             16.45408
832.66096   1635.75342  292.00000  26.14635             14.87372
833.94017   922.48718   117.00000  13.33461             11.51476
833.68750   696.44643   112.00000  14.22141             10.01429
839.62545   940.04000   275.00000  23.70114             15.20575
836.61314   1190.44891  274.00000  23.40297             15.20935
837.20468   799.96491   171.00000  16.85801             12.94999
840.35433   1217.72835  254.00000  23.19456             14.25486
834.79310   767.58621   58.00000   8.65565              8.53391
841.96535   811.83663   202.00000  21.00394             12.63863
839.76667   327.56190   210.00000  17.41532             15.38468
838.78926   421.50000   242.00000  21.86303             14.47967
840.65922   844.92179   179.00000  18.17118             12.61052
840.92887   1305.93305  239.00000  18.29908             16.72981
845.09556   235.49829   293.00000  23.26426             16.49636
843.53586   980.55696   237.00000  21.48894             14.31034
845.02016   1118.10081  248.00000  23.42906             13.85899
841.74138   1725.02155  232.00000  22.09795             13.39260
839.63248   1845.94017  117.00000  14.71637             10.19535
842.66667   346.61765   102.00000  14.14275             9.20054
841.12346   1061.55556  81.00000   11.26710             9.28127
842.80745   1568.81366  161.00000  16.32688             12.68485
844.75735   1584.19118  136.00000  17.41867             10.04131
850.58011   859.81492   362.00000  27.78974             16.79538
844.13095   1531.79365  252.00000  21.11559             15.33028
853.18677   923.32685   257.00000  30.30343             10.98827
849.37611   209.62832   226.00000  18.76498             15.44171
850.34298   831.35124   242.00000  20.04846             15.58198
847.19018   1802.31288  163.00000  16.07782             12.90538
857.71885   1366.69649  313.00000  29.07492             15.33147
851.12834   1927.83957  187.00000  17.90813             13.44241
850.73684   1034.91866  209.00000  21.25202             12.71697
850.31111   1068.12222  90.00000   12.63545             9.05183
852.15487   1256.74336  226.00000  17.90716             16.12184
851.68161   1698.94170  223.00000  20.96426             13.73968
853.21053   960.45395   152.00000  16.63512             11.73403
853.66667   1732.09697  165.00000  17.05543             12.38312
854.62555   1175.53744  227.00000  19.08425             15.46323
856.47321   1315.45536  224.00000  18.11342             17.19230
852.77358   306.83019   53.00000   9.13326              7.38050
854.81858   326.15044   226.00000  23.00055             12.54786
858.20346   676.65368   231.00000  21.09350             14.04500
856.29327   360.69231   208.00000  19.74545             13.65212
858.32099   1328.64609  243.00000  22.41553             14.48706
857.96596   172.45957   235.00000  18.86375             15.98229
856.71951   1016.68293  164.00000  16.40382             12.75848
859.20714   1103.39286  140.00000  17.35441             10.35981
860.54140   1647.83439  157.00000  15.97752             12.61575
862.63374   1476.78601  243.00000  18.15710             17.06392
861.42735   952.56410   117.00000  13.57204             11.08437
863.18436   285.46927   179.00000  18.10374             12.60963
864.19704   1520.75369  203.00000  16.85750             15.47495
861.00000   533.00000   29.00000   6.92931              5.30308
866.18232   1590.33149  181.00000  22.34270             10.46938
870.67600   428.21600   250.00000  20.47702             16.62654
865.60000   844.47143   70.00000   11.86574             7.53295
868.08969   878.37220   223.00000  18.88942             15.36234
869.12755   1011.30612  196.00000  16.31558             15.42994
868.97143   148.93061   245.00000  20.84392             15.01850
867.07438   184.24793   121.00000  14.58432             10.77696
868.48276   1665.07586  145.00000  13.86720             13.34387
871.21818   896.78182   220.00000  18.37734             15.28710
873.94800   1259.70800  250.00000  22.96446             13.92530
873.10046   1106.21918  219.00000  25.55647             11.22784
874.25967   1447.60773  181.00000  19.61262             12.15202
873.65550   334.09569   209.00000  19.31463             13.86262
872.83007   1160.93464  153.00000  18.47680             10.61934
872.33333   261.38095   189.00000  21.40304             11.33382
874.56742   954.52247   178.00000  17.56563             13.06669
878.69659   1203.61300  323.00000  22.82900             18.04008
878.82699   1124.08304  289.00000  28.17744             13.35656
877.74205   1236.15901  283.00000  21.46188             16.98876
879.43333   992.15238   210.00000  20.03653             13.37943
877.46448   801.51913   183.00000  18.78287             12.66326
877.69620   1080.77848  158.00000  16.06589             12.57605
885.38976   932.72047   254.00000  26.12176             12.49710
880.23134   1312.79104  134.00000  14.78093             11.76000
879.55814   1754.04070  172.00000  17.78538             12.37664
886.21505   234.44086   279.00000  26.27568             14.43378
882.15341   1560.14773  176.00000  16.97725             13.19958
883.72650   152.32906   234.00000  18.57526             16.09788
884.25731   875.76608   171.00000  19.39383             11.32005
885.24123   1048.26754  228.00000  20.44456             14.62081
884.72794   1511.01838  272.00000  22.11561             16.01116
884.22222   1371.36000  225.00000  20.54447             14.03816
885.21905   818.42381   210.00000  18.78712             14.40280
886.43721   1171.30698  215.00000  18.69595             14.67976
883.27632   1578.27632  76.00000   11.66635             8.91954
884.62069   1653.25517  145.00000  14.83420             12.52401
886.38418   1626.76271  177.00000  15.25821             14.82833
887.59242   1789.26540  211.00000  21.56216             12.68761
892.10714   501.95635   252.00000  19.13862             16.93238
892.62121   324.29798   198.00000  17.57340             14.39503
893.32246   380.16667   276.00000  20.33484             17.32162
893.23144   1069.39301  229.00000  19.28145             15.38636
892.20902   1265.31148  244.00000  21.46902             14.57970
896.38602   33.17629    329.00000  23.80539             17.75901
895.88750   1313.20000  240.00000  22.57056             13.68433
895.84470   1399.12121  264.00000  20.24070             16.77107
893.80531   986.05310   113.00000  14.42922             10.04746
897.61364   100.40657   396.00000  31.40965             16.37184
896.73418   180.10127   237.00000  19.13880             15.86035
896.10345   1501.37931  232.00000  21.15622             14.01021
899.89459   670.43590   351.00000  22.84643             20.23556
899.93684   1463.76842  190.00000  19.96143             12.23405
899.35165   896.10440   182.00000  18.29602             13.14933
902.35789   1583.26842  190.00000  19.26590             12.59999
902.39766   991.94152   171.00000  17.22655             13.00946
900.58065   1124.87097  186.00000  17.32099             13.77703
903.41393   1158.12295  244.00000  20.64902             15.11307
905.22340   839.16489   188.00000  22.33194             10.87100
905.07853   1601.95288  191.00000  18.39276             13.79588
906.66272   347.75444   338.00000  23.16932             18.68822
907.62500   1557.56250  224.00000  25.24203             11.62320
903.27429   1821.96571  175.00000  16.87831             13.25196
906.95941   269.05535   271.00000  21.97706             15.72093
906.65044   554.69469   226.00000  20.43804             14.13241
907.80591   1325.32489  237.00000  19.20899             15.94391
903.77419   74.24194    62.00000   9.13662              8.78023
907.90909   1021.14545  165.00000  16.96978             12.44203
908.27439   1658.61585  164.00000  14.68373             14.35926
911.06842   858.98947   190.00000  19.23406             12.61226
914.37097   958.26613   248.00000  27.50545             11.63916
910.46212   1345.14394  264.00000  20.05836             16.85874
909.28774   1786.85377  212.00000  19.49993             13.93689
912.56875   918.75312   320.00000  23.49315             17.85416
912.83163   756.20918   196.00000  18.12284             14.16091
914.39271   896.83806   247.00000  19.61741             16.67682
912.87597   1838.86434  258.00000  19.93131             16.53469
913.59474   1171.82632  190.00000  16.85104             14.62246
910.82222   1469.72222  90.00000   11.55286             10.07042
914.41463   1539.59024  205.00000  17.69213             14.79586
917.41159   318.64928   345.00000  21.41897             21.00086
913.43333   1129.65333  150.00000  15.29723             12.54330
914.61538   139.82051   195.00000  17.91228             13.91702
918.47826   827.45109   184.00000  23.49386             10.14640
914.83740   1693.39837  123.00000  16.39157             10.06465
917.65591   64.24731    186.00000  16.05820             14.81909
920.76344   1140.93011  186.00000  17.33495             13.77036
920.02688   1223.73656  186.00000  16.13227             14.68684
921.27984   24.43621    243.00000  19.08806             16.22294
927.20599   75.82772    267.00000  26.23638             13.72810
924.29583   1240.59583  240.00000  21.75286             14.20795
926.95390   226.19149   282.00000  20.97326             17.23466
928.70175   1415.29123  285.00000  26.90253             14.06701
929.38023   575.33460   263.00000  25.56774             13.28067
925.60262   1374.74672  229.00000  19.63298             15.06281
923.03200   1855.07200  125.00000  13.92504             11.50069
927.26667   264.85833   240.00000  17.87095             17.16887
928.77358   1306.58491  265.00000  20.08431             16.82726
929.52610   1351.41365  249.00000  22.25413             14.49820
927.33333   1183.95402  174.00000  15.43357             14.35807
933.07547   285.11950   318.00000  24.89282             16.65039
926.24528   1091.98113  53.00000   9.86610              7.00089
930.31621   1399.54545  253.00000  19.94486             16.19498
932.32353   998.68067   238.00000  21.30345             14.77903
931.42105   746.71579   190.00000  20.59351             12.47775
938.11622   1108.45405  370.00000  31.25022             16.19128
935.38942   819.95192   208.00000  18.62091             14.30809
935.48333   1543.59167  240.00000  20.72768             14.83098
937.55147   887.73897   272.00000  21.28568             16.58380
934.67500   1628.68750  160.00000  14.90941             13.72068
937.28452   1763.69038  239.00000  18.39761             16.75981
936.06863   794.85294   102.00000  13.33186             9.94282
938.37445   1092.08811  227.00000  22.24189             13.18076
939.47754   1281.56028  423.00000  37.30712             14.93814
938.20000   1885.37333  75.00000   12.99409             8.00105
943.07884   1499.88382  241.00000  20.03738             15.44409
944.09179   1611.74396  207.00000  20.05734             13.56885
942.57055   1128.95092  163.00000  15.94751             13.00355
944.46610   1699.49576  236.00000  19.88068             15.19570
944.50746   802.62687   201.00000  17.78862             14.52407
945.73840   767.67511   237.00000  18.19347             16.82432
946.77891   194.46259   294.00000  23.78495             15.82995
948.59671   932.41152   243.00000  26.12724             12.61742
947.82520   1218.46341  246.00000  21.11459             14.87527
948.86415   913.67547   265.00000  19.75217             17.45008
948.35385   1179.81026  195.00000  19.84074             12.61303
949.67857   1334.71032  252.00000  21.37324             15.04696
947.46914   1154.14815  81.00000   14.05049             7.39669
951.65574   103.70820   305.00000  21.49725             18.10787
954.29151   650.11808   271.00000  20.77634             16.68110
952.02024   1053.80162  247.00000  20.67814             15.32024
953.59200   1465.72800  250.00000  22.25994             14.47010
955.84314   845.16863   255.00000  21.77713             14.96919
953.90055   1387.17680  181.00000  17.63550             13.15020
954.66505   724.30583   206.00000  19.67631             13.38590
953.11972   1195.55634  142.00000  16.89029             10.80499
958.26005   1540.43432  373.00000  28.01862             17.69337
958.69388   1573.20000  245.00000  20.16823             15.53775
960.23744   736.45662   219.00000  21.75847             12.90048
957.47143   1308.11071  280.00000  32.14599             11.69482
960.40107   763.68984   187.00000  16.41689             14.62833
963.13732   787.08451   284.00000  25.28179             15.99008
959.25466   1716.54037  161.00000  16.35918             12.75704
964.00394   1257.39370  254.00000  24.44075             13.38160
963.54595   972.69730   185.00000  16.61450             14.19303
966.17193   136.42105   285.00000  21.29691             17.06136
966.27068   1402.49624  133.00000  17.27969             9.98944
965.03448   1481.96552  116.00000  15.71924             9.44158
968.00000   1034.31902  163.00000  17.20068             12.08276
966.55556   1413.71852  135.00000  13.28989             12.97472
969.73026   158.53289   304.00000  24.04598             16.12710
971.01093   1118.13115  183.00000  19.34324             12.21077
967.81529   1496.02548  157.00000  19.64513             11.22596
971.70968   1732.80287  279.00000  22.03919             16.28033
972.57724   739.65041   246.00000  24.08896             14.04335
970.66019   1394.74757  103.00000  13.73656             9.81247
976.04215   303.77011   261.00000  24.44727             13.62276
972.43386   1320.88360  189.00000  16.13279             14.91410
972.41000   1376.77667  300.00000  27.99080             13.89534
974.42562   716.87603   242.00000  18.66778             16.59352
972.37333   1201.22667  75.00000   13.99588             6.82714
976.39574   1222.19149  235.00000  20.41484             14.81881
977.11570   1295.02893  242.00000  22.13264             14.34525
983.95098   1125.46405  306.00000  30.66213             13.04729
983.13830   689.92819   376.00000  30.55054             15.89926
984.70703   862.96094   256.00000  30.02495             10.99624
979.44382   1585.77528  178.00000  15.53055             14.70496
982.65741   1598.37500  216.00000  23.66681             12.14017
983.97207   464.38920   537.00000  41.26774             17.12994
979.94521   789.32420   219.00000  25.18883             11.41951
977.41667   1560.76389  72.00000   10.94566             8.34469
983.18182   1042.51082  231.00000  20.74385             14.32226
982.45143   950.22286   175.00000  18.92648             12.04831
983.05952   1409.91071  168.00000  15.70117             13.76862
990.88315   1277.70380  368.00000  28.08564             17.67117
988.94505   932.91209   182.00000  20.23092             11.65199
987.22099   1027.49724  181.00000  16.85797             13.67499
988.83612   561.49498   299.00000  23.76591             16.44314
987.87387   1614.84685  222.00000  20.55624             13.89343
992.11111   742.64251   207.00000  21.34596             13.10240
989.42636   960.04651   129.00000  14.54551             11.63514
990.30153   990.60687   262.00000  19.48982             17.15594
988.50667   1486.93333  75.00000   10.32295             9.23643
993.05508   783.67797   236.00000  19.55708             15.57973
992.05319   819.47163   282.00000  25.56692             14.50379
995.91365   1143.89415  359.00000  23.81837             20.40392
995.13871   1543.85806  310.00000  21.83912             18.23140
993.22613   1095.69849  199.00000  19.53781             13.25443
997.85000   635.38750   240.00000  19.87391             15.42072
1000.03042  907.59696   263.00000  25.80860             13.07081
991.72917   1568.56250  48.00000   9.15313              6.68213
998.24675   714.90476   231.00000  19.70057             15.20871
993.63415   1173.17561  205.00000  24.31374             11.39286
994.97452   1518.05732  157.00000  14.80398             13.61115
993.16667   1442.50000  36.00000   7.08676              6.42910
999.37719   1734.76316  228.00000  20.91463             14.02131
1000.99408  1678.15385  169.00000  16.74921             12.84899
1003.32314  519.60262   229.00000  21.23466             13.99006
1002.16346  1439.46154  104.00000  13.35568             10.08148
1007.67986  1079.97482  278.00000  19.99390             17.82015
1008.53728  764.55482   456.00000  35.06832             17.28306
1006.87500  1419.17857  224.00000  20.05646             14.25206
1005.47581  1521.75806  124.00000  14.47083             11.22659
1005.94928  1467.64493  138.00000  14.94643             11.92954
1010.46758  978.26280   293.00000  24.69478             15.18425
1013.83588  1576.34351  262.00000  29.42825             11.54855
1014.07348  1127.80192  313.00000  29.22516             13.77224
1010.85321  1394.06422  218.00000  19.65889             14.28600
1012.27907  794.79070   215.00000  18.43593             15.07476
1013.32014  1490.74820  278.00000  22.18513             16.56077
1012.14410  1637.14410  229.00000  17.61414             16.69647
1013.12500  1542.72396  192.00000  22.56756             10.86981
1013.79221  1222.00000  231.00000  19.83211             15.14964
1016.85027  1309.63102  187.00000  21.79878             11.14456
1018.00687  1473.63230  291.00000  20.61744             18.15477
1017.20673  1553.30769  208.00000  24.14300             11.09719
1017.72432  283.80000   185.00000  16.11994             14.71017
1017.87919  660.09396   298.00000  28.05533             13.90526
1019.52821  937.34872   195.00000  16.82168             14.81288
1017.44382  1049.96067  178.00000  17.06984             13.37133
1018.61719  1319.28125  128.00000  16.84273             9.68695
1021.17343  1099.67528  271.00000  24.72256             14.20563
1019.63014  1499.01370  73.00000   11.47104             8.23816
1022.42286  1233.02286  175.00000  16.43854             13.67383
1024.28931  597.38679   318.00000  31.56735             13.00492
1028.33455  1187.98545  275.00000  23.00961             15.60863
1026.72269  698.36134   238.00000  21.14546             14.40717
1032.63438  676.26875   320.00000  25.92510             16.11970
1028.54510  1166.82745  255.00000  24.97249             13.32221
1029.59535  1253.62326  215.00000  16.95286             16.52702
1031.82273  1561.81364  220.00000  20.59540             13.69566
1033.41455  271.54545   275.00000  19.03611             18.65379
1031.68610  830.79821   223.00000  19.72445             14.70428
1032.37154  1329.02372  253.00000  19.41772             16.75466
1032.48387  1240.75000  124.00000  14.60434             10.84343
1032.13636  1358.98701  154.00000  16.25409             12.08295
1038.91837  1408.15452  343.00000  26.26448             17.06438
1034.84699  1503.61749  183.00000  18.81785             13.03979
1035.70755  1435.16509  212.00000  18.55441             14.64437
1037.22594  1019.62343  239.00000  18.82103             16.18839
1030.52000  1463.88000  25.00000   6.53485              4.94155
1040.96914  979.80864   324.00000  30.87370             13.68035
1038.12174  1059.00870  230.00000  19.57182             15.07810
1040.25630  746.83193   238.00000  18.55050             16.82703
1040.42909  1662.76000  275.00000  19.71515             17.78247
1042.09091  883.88384   198.00000  18.13146             14.23159
1047.47143  647.70000   210.00000  28.69111             9.93001
1042.52970  711.37129   202.00000  20.90402             12.35972
1037.39623  892.64151   53.00000   8.94271              7.73056
1041.36250  1172.40625  160.00000  15.00612             13.86265
1042.99605  809.94466   253.00000  20.32767             16.09512
1045.18590  1689.60256  156.00000  18.41666             11.41312
1043.65464  245.27835   194.00000  17.65816             14.05182
1045.11765  516.85098   255.00000  24.72053             13.27673
1048.50193  775.67568   259.00000  24.61346             13.56069
1051.19111  895.91556   225.00000  21.05018             13.93048
1048.44030  602.25373   268.00000  22.47090             15.85573
1050.16580  1312.34715  193.00000  17.78179             14.05944
1052.74449  1389.12335  227.00000  21.68776             13.51263
1050.22989  1700.23563  174.00000  16.96873             13.13001
1051.21377  1075.81522  276.00000  24.06243             15.14414
1053.18298  761.40426   235.00000  22.34417             14.05840
1053.76923  1253.53394  221.00000  19.52548             14.53046
1051.78889  1103.34444  180.00000  18.62539             12.36460
1057.82253  924.63481   293.00000  22.17035             16.89583
1057.31611  1276.60486  329.00000  23.11756             18.52260
1055.06311  1630.78155  206.00000  17.22807             15.41142
1059.69550  1488.41522  289.00000  30.35886             13.43010
1059.61345  725.61765   238.00000  21.33334             14.77873
1060.67451  217.39216   255.00000  26.40580             12.60958
1061.58333  746.03750   240.00000  19.08701             16.09200
1061.83133  1045.15261  249.00000  21.87568             14.53042
1065.50000  878.77612   268.00000  19.34986             18.89180
1065.64889  1130.22667  225.00000  23.22416             12.56996
1066.93160  447.84691   307.00000  35.87295             11.39993
1065.58986  1310.04608  217.00000  17.63723             16.47928
1061.30000  1397.82500  40.00000   7.55412              6.73835
1068.29371  1320.88112  143.00000  22.13619             8.33677
1066.52577  1351.23196  194.00000  16.97493             14.62419
1069.43827  1141.59877  162.00000  18.12624             11.69205
1071.33588  775.84733   262.00000  22.49666             15.15911
1072.64634  1693.23577  246.00000  19.16450             16.49174
1072.29915  1238.68376  234.00000  21.44090             14.24659
1073.95238  710.78788   231.00000  19.36081             15.34891
1074.12054  1035.99107  224.00000  18.94317             15.07106
1069.41304  1272.91304  46.00000   7.97947              7.45415
1076.50691  622.52535   217.00000  21.51701             12.92348
1071.39535  1430.04651  86.00000   12.54494             8.73888
1075.12150  1296.82243  107.00000  14.98170             9.16743
1075.87892  458.53812   223.00000  20.45045             14.38036
1078.74144  602.28137   263.00000  20.18388             16.73799
1076.61644  1363.28767  73.00000   15.41206             6.07679
1078.36555  1000.94958  238.00000  18.35445             16.92974
1077.25316  1407.82911  158.00000  15.38319             13.07976
1077.73404  1605.94149  188.00000  18.18111             13.46726
1079.11321  1479.49686  159.00000  18.59975             10.96972
1076.90361  1543.45783  166.00000  18.12745             11.74997
1082.19205  1056.19536  302.00000  20.81013             19.26366
1079.98969  1657.43814  194.00000  17.45126             14.24705
1077.70000  1457.96667  30.00000   7.09276              5.41310
1086.54237  173.47119   295.00000  21.51809             17.80899
1081.55102  1382.22449  49.00000   9.15328              6.85878
1088.39184  1112.42449  245.00000  21.71521             14.47784
1087.96522  1217.92609  230.00000  20.31941             14.93018
1085.58683  1501.01796  167.00000  17.82446             12.25409
1091.02830  377.39308   318.00000  25.90831             15.86691
1088.29012  1136.11111  162.00000  16.87325             12.30361
1092.17647  1339.01471  272.00000  21.04901             16.65469
1086.98113  1423.58491  53.00000   9.67079              6.99434
1087.97248  1450.49541  109.00000  12.55711             11.03764
1091.51389  1650.16667  144.00000  17.57543             10.50879
1088.55556  1355.31746  63.00000   10.31893             7.77363
1095.38380  883.62324   284.00000  20.03595             18.90869
1091.62434  1177.68783  189.00000  16.78709             14.43709
1094.21788  1321.19553  179.00000  21.00914             11.01214
1086.95000  1398.90000  20.00000   5.21536              4.79583
1092.39394  1474.25455  165.00000  16.68659             12.80632
1101.97931  923.53793   290.00000  24.29643             15.59570
1096.85714  1386.65899  217.00000  20.16591             13.83499
1098.13836  1439.77358  159.00000  18.32418             11.15261
1098.97285  1506.48416  221.00000  20.26062             14.02545
1099.40196  1248.30882  204.00000  17.14905             15.33658
1099.59890  631.99451   182.00000  18.83008             12.56354
1101.03953  1044.94862  253.00000  19.38531             16.99990
1103.41410  682.70925   227.00000  20.83529             13.90961
1101.74740  812.82699   289.00000  31.49363             12.46534
1104.61433  1729.58362  293.00000  28.16659             13.55414
1104.15523  755.54874   277.00000  21.48497             16.57695
1104.78073  1105.07973  301.00000  32.59216             11.81486
1104.80714  1577.27143  140.00000  15.58069             11.44101
1104.66667  1426.68333  60.00000   10.66636             7.26039
1111.01404  134.44211   285.00000  28.00518             13.17108
1109.29586  618.07101   169.00000  16.54440             13.02966
1108.97814  1183.77049  183.00000  16.94541             14.06940
1110.21277  1357.58511  188.00000  16.30518             14.88476
1109.45045  1676.42793  222.00000  20.75644             13.68247
1112.49785  1056.02575  233.00000  18.50400             16.20030
1110.68874  1375.08609  151.00000  16.76419             13.32609
1110.95337  1288.76684  193.00000  17.07137             14.50444
1112.20398  1310.46766  201.00000  17.26750             14.92658
1113.19553  1492.22346  179.00000  15.47117             14.76038
1115.15924  1408.01911  157.00000  15.02513             13.38027
1118.89209  1174.38849  139.00000  15.80522             11.23316
1119.73361  1037.25820  244.00000  18.90184             17.11658
1115.17143  1439.74286  35.00000   6.93211              6.43343
1116.53333  1254.26667  45.00000   7.74900              7.47423
1125.12635  1510.60289  277.00000  24.72667             14.40795
1124.47208  1264.69036  197.00000  21.89363             11.62334
1121.38983  1583.27119  236.00000  24.22490             12.50032
1123.70721  303.30180   222.00000  18.89774             15.28975
1123.70435  1662.27391  230.00000  19.94793             14.97021
1124.27861  773.16915   201.00000  19.52577             13.24885
1121.82126  1368.39130  207.00000  20.32364             13.37342
1124.46835  1479.31646  237.00000  19.13939             16.07623
1126.67773  565.67299   211.00000  18.62900             14.54508
1123.05405  1290.52703  74.00000   12.37353             7.64230
1125.87372  1338.06485  293.00000  28.05026             13.46365
1125.57310  1431.36257  171.00000  16.41669             13.33682
1126.71818  196.98485   330.00000  27.53411             15.44074
1130.25081  758.02606   307.00000  28.78812             13.90470
1132.71429  1124.47253  273.00000  23.02593             15.56051
1129.40984  1148.99180  244.00000  22.54343             13.95744
1133.63178  842.22868   258.00000  23.44638             14.22539
1127.57534  1246.19178  73.00000   11.18619             8.53347
1130.56808  1387.51643  213.00000  20.81470             13.04032
1138.41758  609.07692   273.00000  26.52034             13.20947
1133.97826  1284.23913  138.00000  16.42688             10.94203
1136.33040  671.27753   227.00000  20.29402             14.35768
1135.85116  1724.23721  215.00000  18.55732             14.89838
1136.15504  1250.07752  129.00000  14.06137             11.96371
1137.74884  295.28837   215.00000  18.10785             15.32161
1139.35336  894.97880   283.00000  27.93308             13.39530
1136.18182  1296.65152  198.00000  19.07011             13.66853
1139.00000  1530.85824  261.00000  21.53994             15.64993
1138.66321  311.19689   193.00000  16.62626             14.82515
1144.06608  1161.48458  227.00000  25.39650             11.97949
1142.83673  1411.04592  196.00000  23.41254             10.83667
1141.30741  181.80741   270.00000  22.00249             15.66335
1140.74011  1332.01695  177.00000  16.61335             13.72435
1137.36364  1310.33333  33.00000   7.12711              5.91673
1140.77073  1652.08780  205.00000  20.94483             12.50008
1144.04490  1011.35510  245.00000  20.09432             15.81052
1143.17105  1425.78289  152.00000  18.23411             10.75468
1145.52823  1763.93952  248.00000  22.82975             13.97079
1145.63869  722.93431   274.00000  21.67925             16.19853
1146.05000  1364.23182  220.00000  23.75799             11.92263
1148.50376  548.67293   266.00000  24.22495             14.06043
1146.66176  1261.38725  204.00000  22.91812             11.44211
1148.37132  883.43750   272.00000  24.37186             14.54536
1148.71910  1179.47191  178.00000  16.91879             13.42757
1148.17826  1574.72174  230.00000  20.05296             14.86727
1151.17200  806.00000   250.00000  22.19056             14.54489
1152.68605  768.62403   258.00000  21.58531             15.28449
1153.60684  1495.30342  234.00000  19.73805             15.17425
1153.64545  1741.89091  220.00000  21.05844             13.96145
1153.96078  1446.58824  204.00000  17.34970             15.19338
1153.36420  1642.95062  162.00000  15.88264             13.09039
1157.36823  1619.93502  277.00000  20.36291             17.80873
1158.54572  1384.01475  339.00000  24.02200             18.15123
1157.25000  1699.05000  200.00000  17.62998             14.48254
1158.06130  959.36782   261.00000  21.97314             15.46168
1159.33019  1225.85849  212.00000  24.08346             11.54309
1156.57009  1514.17757  107.00000  11.97189             11.44091
1154.59259  1303.07407  27.00000   6.42150              5.26541
1161.06316  1457.71053  190.00000  19.44088             12.53607
1162.70440  689.16981   159.00000  17.52339             11.58625
1162.39881  1193.92857  168.00000  16.24063             13.17271
1164.14062  1155.76042  192.00000  18.14323             14.15410
1164.70342  1313.63118  263.00000  27.03276             12.44073
1167.31250  970.29018   224.00000  19.99653             14.32830
1168.08889  598.60741   270.00000  21.32622             16.73032
1166.69663  1642.67978  178.00000  17.34928             13.25215
1170.02857  559.48000   175.00000  16.64776             13.54015
1173.07581  1088.05776  277.00000  20.63212             17.44524
1172.04255  1400.01596  188.00000  16.18248             14.86853
1175.83590  772.87692   195.00000  22.13578             11.40763
1175.79781  785.59563   183.00000  16.26070             14.46580
1176.54751  1125.35294  221.00000  18.96664             15.31191
1175.76984  723.37302   126.00000  13.33571             12.19573
1180.10000  1035.59032  310.00000  22.51635             17.64161
1178.00000  1066.66359  217.00000  19.37436             14.34156
1177.44086  1100.94624  93.00000   13.35791             9.11111
1179.20556  1111.54444  180.00000  19.00559             12.48786
1178.04098  1358.04098  122.00000  16.79733             10.05032
1180.91089  305.67822   202.00000  18.04215             14.29754
1177.92424  1220.34848  66.00000   11.15223             7.60495
1183.93088  320.68203   217.00000  21.48757             12.90019
1182.12429  1210.94915  177.00000  18.28148             12.50746
1182.79670  1531.59341  182.00000  21.04598             11.07427
1182.26027  1552.27397  219.00000  23.50314             11.87080
1181.94040  1367.60265  151.00000  15.09778             13.13974
1183.23529  1464.46569  204.00000  17.67231             14.83903
1182.61429  1047.62857  70.00000   11.30534             8.13819
1184.67742  1519.49032  155.00000  15.69825             12.60524
1187.07937  1634.88095  252.00000  21.05826             15.36126
1188.80392  1319.85294  204.00000  20.30801             12.95982
1186.43787  1660.49112  169.00000  15.59595             13.81083
1188.68421  1386.93684  95.00000   11.86346             10.45084
1185.22727  1402.77273  22.00000   5.96962              4.72727
1195.49388  1240.40816  245.00000  21.68594             14.79385
1191.08333  1764.04545  132.00000  13.88069             12.12187
1192.91608  697.53147   143.00000  16.60070             11.12210
1193.58333  737.48718   156.00000  16.95530             11.89674
1195.12739  1393.62420  157.00000  18.24884             12.07416
1191.20930  1369.97674  86.00000   13.17983             8.36944
1195.68485  713.95758   165.00000  16.82924             12.50095
1202.64912  1265.33684  285.00000  23.08387             15.82166
1199.09146  1444.40244  164.00000  17.43508             12.06184
1197.30645  1645.09140  186.00000  18.32901             13.01621
1199.32418  1456.24725  182.00000  17.81790             13.27458
1201.18079  1151.06215  177.00000  26.55049             8.84905
1207.38740  1430.01718  524.00000  31.92818             21.49778
1200.97959  1511.16327  196.00000  18.69343             13.64267
1197.62667  592.58667   75.00000   11.05328             8.70296
1202.57971  1140.52899  138.00000  15.69445             11.66455
1203.00962  1294.77885  208.00000  17.80153             15.17635
1203.41848  1187.23370  184.00000  20.82891             11.46840
1208.10390  806.38528   231.00000  26.22506             11.45598
1207.13678  1618.75684  329.00000  23.26823             18.12706
1201.44444  1412.40741  27.00000   6.43581              5.29372
1211.21622  1282.90090  222.00000  21.66966             13.46628
1207.11111  317.68519   54.00000   9.30814              7.43498
1212.09274  1114.31855  248.00000  23.08938             13.89674
1214.63452  1196.32487  197.00000  19.53917             12.87894
1218.34804  1140.73529  204.00000  18.44609             14.90283
1217.10784  777.46078   102.00000  15.14957             8.62312
1213.34091  1447.00000  44.00000   7.86775              7.12632
1215.28571  1185.06349  63.00000   10.81221             7.64770
1217.36900  1222.17712  271.00000  24.97711             14.10144
1218.56934  1502.72993  137.00000  14.20625             12.30529
1218.75833  1490.05000  120.00000  12.95634             11.82478
1223.76000  305.21333   225.00000  18.59016             15.46869
1225.94468  1760.46383  235.00000  19.34237             15.59865
1225.17742  589.52688   186.00000  16.36395             14.57818
1225.39157  626.14458   166.00000  19.78137             11.70034
1232.78846  1168.79808  312.00000  34.15335             11.96687
1232.27211  1482.22789  294.00000  22.93136             16.91197
1237.84192  1303.23024  291.00000  30.36072             12.65682
1232.54043  814.67660   235.00000  19.96263             15.34560
1232.95210  542.71856   167.00000  16.47218             13.13716
1231.59091  1616.27922  154.00000  16.74951             11.86926
1233.87296  1103.12052  307.00000  24.22727             17.11776
1237.59375  782.27232   224.00000  20.76375             14.10814
1231.55319  1436.23404  47.00000   9.27909              6.42122
1235.67257  557.36283   113.00000  13.25242             10.91006
1239.54741  1138.65948  232.00000  21.89854             13.66637
1238.43363  1454.32301  226.00000  17.89204             16.07760
1243.88265  1695.52041  196.00000  20.87613             12.20410
1244.26901  608.00000   171.00000  18.34478             12.09302
1246.94444  1434.27315  216.00000  18.87647             14.73691
1253.93810  1014.70406  517.00000  36.93274             18.86580
1247.46667  557.98333   120.00000  13.85008             11.11844
1248.23214  579.25000   168.00000  18.14759             11.92608
1248.32558  1112.59690  129.00000  13.25909             12.43126
1248.93220  1635.68927  177.00000  17.71768             12.73600
1250.77922  541.40260   154.00000  17.89829             11.02618
1256.28723  526.07447   188.00000  17.35940             13.90729
1259.84834  847.73460   211.00000  23.64151             11.51143
1258.66008  1488.96838  253.00000  19.46873             16.67182
1262.14414  309.09009   222.00000  19.80157             14.33490
1261.76768  290.44949   198.00000  18.26570             13.91334
1262.33921  702.55066   227.00000  22.88856             12.63911
1261.63426  1109.13426  216.00000  23.64564             11.86074
1264.39512  785.86341   205.00000  20.67581             13.12147
1265.45221  1760.06985  272.00000  24.02951             14.83826
1267.01429  494.61429   140.00000  17.15216             10.91748
1265.01408  504.08451   71.00000   10.28458             8.86980
1268.96154  568.56731   208.00000  18.06069             14.77081
1266.05882  1365.51765  85.00000   11.11469             9.71734
1270.50779  1564.09034  321.00000  29.73386             13.97694
1270.76712  874.06849   219.00000  20.45189             13.95071
1276.35145  1507.93478  276.00000  24.23833             14.91117
1275.30542  1157.80788  203.00000  20.38456             13.33031
1275.09615  906.57212   208.00000  21.43754             12.36810
1277.41598  943.14050   363.00000  29.83287             16.38672
1277.16732  1297.74319  257.00000  21.15074             16.16883
1280.17703  675.19617   209.00000  17.40542             15.37073
1277.55405  1416.20270  222.00000  21.57574             13.15121
1280.04706  463.55294   170.00000  16.90777             12.82736
1284.90256  1781.70769  195.00000  19.25781             12.92374
1284.98598  1469.89720  214.00000  17.42195             15.64336
1286.84868  558.09211   152.00000  16.07357             12.19928
1292.67128  1090.16609  289.00000  27.58681             13.53637
1294.52158  788.82374   278.00000  23.46524             15.76218
1294.11922  1185.62530  411.00000  26.36448             20.07716
1289.04225  1396.02465  284.00000  25.72895             14.56641
1292.03788  1288.16667  132.00000  14.30433             11.81206
1293.00562  62.33708    178.00000  16.30943             13.97766
1301.85052  85.48454    194.00000  20.31938             13.37479
1297.14815  464.28148   135.00000  15.82897             10.95322
1302.87946  1757.01786  224.00000  18.59633             15.43221
1306.73077  1113.96154  286.00000  22.45263             16.29396
1305.68531  1519.03497  286.00000  21.81323             17.11842
1308.75410  1252.20902  244.00000  31.26957             10.30151
1309.60687  1306.19847  262.00000  21.59417             15.72354
1307.74522  1365.63694  157.00000  15.69823             13.03783
1312.39362  293.94326   282.00000  19.88075             18.15336
1315.65854  1431.33101  287.00000  27.28513             14.39320
1315.98225  1781.92899  169.00000  15.68970             13.85627
1326.82900  1087.81784  269.00000  19.92283             17.29517
1329.00909  648.58485   330.00000  24.22050             17.84758
1327.90749  1304.72687  227.00000  19.60027             14.81445
1329.71196  1160.18478  184.00000  18.14145             12.94356
1336.82222  531.25185   135.00000  13.52890             12.77425
1341.05285  1211.64634  246.00000  27.64702             11.49775
1340.18405  517.08589   163.00000  14.96045             14.06440
1341.67286  627.34201   269.00000  19.60290             17.90707
1341.19283  153.97758   223.00000  22.27992             12.94928
1341.98611  26.37500    144.00000  14.70197             12.55384
1347.17600  1744.98800  250.00000  19.08033             16.78627
1346.94375  1283.78750  160.00000  15.77277             13.04402
1348.50636  449.11229   472.00000  48.50395             14.29041
1348.39574  561.46809   235.00000  22.45874             13.64948
1347.52326  1378.81395  86.00000   12.02499             9.22332
1349.27642  54.13821    123.00000  13.24114             11.86055
1348.67105  1258.72368  76.00000   10.05740             9.68455
1353.22308  29.41538    130.00000  16.45140             10.19852
1354.13333  212.99259   270.00000  25.25089             13.67465
1356.50467  9.78505     214.00000  18.80115             14.52492
1362.12774  1107.97445  274.00000  20.81666             16.85752
1367.71138  1174.54065  246.00000  23.10160             14.16331
1367.55729  379.58854   192.00000  17.94434             13.71092
1364.63253  1365.86747  166.00000  16.92784             12.55233
1369.69811  1417.60377  212.00000  18.43251             14.77788
1369.28718  1741.64615  195.00000  17.88088             14.00320
1371.74265  909.51103   272.00000  21.23976             16.54723
1374.02869  487.20082   244.00000  22.42230             13.87266
1374.04301  959.53763   279.00000  22.58108             15.98811
1373.92965  1774.34673  199.00000  19.66501             12.93308
1375.18182  1332.02674  187.00000  21.03998             11.54894
1377.47518  868.92199   282.00000  20.35141             17.83882
1378.68889  299.18519   270.00000  20.77216             16.70899
1379.43750  1216.83456  272.00000  31.88519             11.09101
1377.88835  13.83010    206.00000  18.97158             13.89979
1374.43243  822.94595   37.00000   7.45712              6.25160
1383.71898  1140.90876  274.00000  21.75925             16.48533
1381.88732  80.07512    213.00000  21.40958             12.97174
1376.26000  981.46000   50.00000   8.78555              7.21852
1385.40392  681.18431   255.00000  21.04798             15.45167
1386.02365  751.57095   296.00000  25.16893             15.17833
1383.32787  1381.38525  122.00000  14.75376             11.04399
1388.88889  827.12153   288.00000  20.97220             17.96632
1384.72263  99.16058    137.00000  15.62686             11.31875
1391.67170  489.79245   265.00000  25.60966             13.47071
1392.75546  53.43231    229.00000  20.91652             14.02873
1395.58282  125.09816   163.00000  14.87644             13.98854
1403.16667  1181.68860  228.00000  28.40165             11.47304
1399.45771  324.76119   201.00000  18.20314             14.10632
1404.48077  86.45000    260.00000  19.63851             16.98161
1410.42623  476.28689   244.00000  25.69101             12.56633
1410.52045  1128.68773  269.00000  23.17215             15.09220
1410.79444  1192.46111  180.00000  17.92561             12.98611
1414.20000  239.77500   240.00000  21.06901             14.54120
1417.56877  336.25651   269.00000  19.99753             17.78172
1416.61783  688.45223   157.00000  18.57522             10.93940
1419.70192  1137.54327  208.00000  22.11914             12.18068
1419.11005  111.47368   209.00000  19.08505             14.06125
1420.46961  1109.40331  181.00000  19.58190             11.79139
1422.87440  677.17874   207.00000  18.99920             14.20642
1422.19524  55.22857    210.00000  18.67309             14.40514
1425.74800  439.18400   250.00000  26.14571             12.30398
1424.42231  140.60159   251.00000  22.10364             14.61962
1425.58484  826.68231   277.00000  22.94337             15.57194
1429.63202  1334.28652  356.00000  27.20277             18.07199
1422.13187  1781.08791  182.00000  18.18717             12.83842
1424.43066  1192.96350  137.00000  15.32332             11.40572
1425.67196  268.92063   189.00000  16.76008             14.39382
1428.71698  1261.57358  265.00000  22.79414             14.85968
1432.29851  702.83955   268.00000  24.30750             14.43753
1431.95331  730.76654   257.00000  22.63156             14.80440
1434.80645  1113.07527  186.00000  24.27388             10.09326
1434.93229  1065.73958  192.00000  18.15176             13.56854
1433.82971  1087.72464  276.00000  20.33476             17.43751
1433.98125  33.41875    160.00000  17.80275             11.48263
1437.29231  236.14872   195.00000  18.10300             13.79396
1441.20305  1180.82741  197.00000  16.18976             15.63233
1439.68531  69.85315    143.00000  14.87523             12.24977
1444.07362  796.89571   163.00000  17.30622             12.33931
1445.58130  411.04065   246.00000  18.84405             16.68032
1445.89299  359.09594   271.00000  25.88440             13.37342
1446.03846  1034.27350  234.00000  19.86260             15.12399
1447.00000  147.99408   169.00000  15.86084             13.69084
1446.11336  675.80567   247.00000  22.46118             14.26914
1448.84541  1096.54589  207.00000  19.55251             13.92971
1451.20946  648.36824   296.00000  21.71479             17.81061
1452.07395  782.36977   311.00000  26.63482             15.38454
1449.13924  274.09494   158.00000  16.14107             12.51930
1454.26220  434.10366   164.00000  17.83451             11.97049
1454.12554  981.41558   231.00000  25.50331             11.93064
1454.30769  327.20513   156.00000  15.27694             13.04495
1457.97984  715.60484   248.00000  20.39009             15.61628
1459.65552  747.89967   299.00000  22.23539             17.29721
1455.99065  312.82243   107.00000  12.27721             11.19820
1456.91099  614.09424   191.00000  20.96037             11.64646
1459.54438  31.04734    169.00000  15.22218             14.15402
1460.30526  669.41053   190.00000  16.68371             14.69096
1456.69811  767.84906   53.00000   9.45937              7.19666
1460.89005  1046.09948  191.00000  16.05372             15.17575
1458.39726  1150.21918  73.00000   11.08006             8.42494
1462.82301  239.39381   226.00000  20.69092             13.95253
1465.76062  540.62548   259.00000  23.33456             14.51765
1467.12552  1098.47699  239.00000  26.20911             11.79186
1469.00995  557.76617   201.00000  19.35922             13.31688
1467.77872  793.07234   235.00000  19.99871             15.17450
1468.21143  315.53143   175.00000  15.45382             14.47174
1470.33047  422.16738   233.00000  20.30893             14.66463
1470.85096  570.97115   208.00000  17.25671             15.48419
1471.80543  406.64253   221.00000  22.08357             12.85142
1470.29586  115.07101   169.00000  18.35203             11.84091
1470.41477  159.59659   176.00000  16.49913             13.58691
1470.97153  361.80783   281.00000  29.02947             12.49352
1471.77604  1805.33333  192.00000  16.60436             14.78056
1471.97701  485.53257   261.00000  24.55420             13.70938
1471.50617  993.17284   162.00000  16.06451             13.38771
1474.28758  981.27451   153.00000  14.78540             13.83139
1478.84677  1123.25806  248.00000  23.63973             13.63982
1479.73611  180.55556   216.00000  20.53463             13.73488
1479.44654  952.47799   159.00000  23.17613             9.16767
1479.18812  302.41089   202.00000  18.81327             13.79701
1479.74747  653.34343   198.00000  18.28016             14.10706
1480.68387  961.50323   155.00000  21.18314             9.50506
1480.14458  26.09036    166.00000  17.99441             11.81693
1486.20139  591.06250   288.00000  20.18301             18.29818
1483.86345  1071.74699  249.00000  24.44622             13.05409
1486.95327  120.25701   214.00000  18.38567             14.83418
1484.92638  1048.80368  163.00000  15.43936             13.56431
1489.17339  1298.25806  248.00000  19.23935             16.43691
1488.49215  340.71204   191.00000  16.19721             15.10897
1491.42276  499.80488   246.00000  22.75076             14.03043
1488.64192  1168.88210  229.00000  18.26711             15.97499
1485.14583  1185.04167  48.00000   10.11320             6.02952
1493.63918  567.37457   291.00000  24.41353             15.59128
1492.25592  632.09479   211.00000  20.44154             13.42220
1490.13846  453.99231   130.00000  13.72083             12.05566
1491.65000  100.12500   160.00000  15.85886             12.85639
1494.12000  242.87000   200.00000  16.80922             15.22069
1495.02094  361.95288   191.00000  16.22900             15.17339
1494.62136  434.54854   206.00000  18.57912             14.25766
1492.43972  515.75887   141.00000  15.58282             11.57473
1495.48175  1062.17518  137.00000  17.59807             10.21956
1496.24000  72.61500    200.00000  19.32779             13.35753
1495.76871  843.09524   294.00000  27.71779             13.58778
1499.83206  1157.94275  262.00000  20.62513             16.61213
1498.23560  222.07330   191.00000  16.06522             15.16791
1499.50000  1053.47619  126.00000  16.14442             10.18165
1497.78667  1088.06667  150.00000  15.05985             12.69232
1503.62222  765.44889   225.00000  19.17846             15.25412
1502.00000  1146.32203  59.00000   9.71826              7.73488
1507.07558  80.04651    172.00000  18.53856             11.97324
1508.80571  398.94286   175.00000  15.94270             14.04919
1509.10853  884.82171   258.00000  28.49370             12.23800
1510.14403  1284.06584  243.00000  18.33981             16.90178
1507.37736  1308.64151  53.00000   10.53006             6.39207
1514.46849  1007.21096  365.00000  23.76726             19.79983
1512.87111  477.04889   225.00000  18.04221             16.05343
1512.58115  662.84293   191.00000  16.97538             14.40136
1513.23370  521.71196   184.00000  17.48599             13.50828
1511.47945  510.19178   73.00000   10.28009             9.07042
1521.56678  825.38111   307.00000  29.58084             13.80786
1516.94915  1131.71186  177.00000  20.69254             11.08811
1519.05660  899.52830   212.00000  19.96214             13.60410
1520.13333  768.43333   210.00000  17.92175             15.01295
1521.82213  702.81028   253.00000  18.78778             17.24482
1521.49808  1208.17625  261.00000  21.79477             15.39171
1519.59690  583.44961   129.00000  14.16712             11.64199
1521.98396  1121.28342  187.00000  16.70753             14.33133
1520.03676  193.06618   136.00000  16.17793             10.70763
1525.36078  648.25098   255.00000  19.99450             16.62552
1524.69231  206.34615   130.00000  14.29471             11.57644
1523.88591  945.17450   149.00000  15.08404             12.68162
1529.46398  356.02305   347.00000  27.94655             16.20043
1530.02532  1309.62025  237.00000  22.17427             13.73502
1529.76096  325.08765   251.00000  22.16626             14.59528
1528.42795  388.10480   229.00000  18.47003             15.84852
1523.35484  1159.22581  31.00000   6.69409              5.99764
1528.44068  110.19492   236.00000  19.48221             15.71083
1529.77291  594.41833   251.00000  18.97848             16.94945
1529.83838  737.80303   198.00000  18.07725             13.93827
1526.72131  991.31148   61.00000   10.12358             7.74365
1533.83069  776.64550   189.00000  15.93812             15.24453
1531.61538  933.69231   78.00000   10.38270             9.53858
1539.31414  821.24607   191.00000  19.31409             12.76610
1538.46328  301.03390   177.00000  17.35243             13.44859
1536.52941  670.44118   68.00000   10.12013             8.71014
1535.81132  1138.77358  53.00000   9.15764              7.36339
1540.26606  551.71560   218.00000  20.41093             13.76255
1543.47647  454.70588   170.00000  15.38817             14.23746
1545.40884  845.82320   181.00000  20.20001             11.49251
1549.73958  775.79167   192.00000  20.35900             12.03045
1550.92373  1061.77119  236.00000  21.78644             13.85445
1548.23256  812.44767   172.00000  18.20390             12.28677
1549.93750  567.54688   128.00000  18.56418             8.91759
1548.97253  627.11538   182.00000  17.95130             12.91683
1551.86038  745.86415   265.00000  20.34910             17.44537
1552.79038  1013.51203  291.00000  22.08775             16.86626
1550.68531  1300.82168  286.00000  24.54993             14.89607
1550.70149  292.82090   134.00000  17.86094             9.68781
1554.01442  1161.91346  208.00000  17.65908             15.16939
1554.94241  193.06806   191.00000  17.62720             13.99860
1554.95455  391.24675   154.00000  14.54191             13.52990
1557.66667  574.04094   171.00000  16.41220             13.38211
1562.91563  536.99504   403.00000  26.46574             19.62315
1562.20773  674.19324   207.00000  18.60034             14.76990
1559.83750  705.21667   240.00000  22.42608             13.74399
1561.88259  1136.22672  247.00000  20.14072             15.89174
1566.29858  308.47867   211.00000  19.63848             14.01103
1564.92017  639.47059   238.00000  24.85740             12.27051
1568.81377  1001.24291  247.00000  21.21945             15.47706
1570.52107  416.32567   261.00000  23.32120             14.47193
1570.42125  1110.76923  273.00000  20.15917             17.31070
1570.22703  625.49189   185.00000  18.52019             12.94243
1574.23906  1049.61279  297.00000  23.57317             16.29264
1571.95161  1282.33468  248.00000  20.38239             15.52374
1571.66667  808.67442   129.00000  14.21485             11.63725
1572.80709  342.86220   254.00000  26.24601             12.52948
1574.86758  398.61187   219.00000  18.36817             15.20189
1572.90196  825.93137   102.00000  14.68569             8.93240
1578.88070  1206.61053  285.00000  23.50512             15.52717
1575.15287  492.49682   157.00000  15.50563             12.96114
1577.17899  757.21790   257.00000  19.42388             17.00243
1579.64400  951.79200   250.00000  21.70903             14.70068
1580.81377  445.60324   247.00000  25.58890             12.42749
1580.06751  787.56118   237.00000  25.18630             13.37289
1582.86364  16.93182    176.00000  15.84362             14.48098
1585.66090  553.08304   289.00000  21.67206             17.14132
1584.65000  512.63889   180.00000  16.56591             13.86009
1587.68605  612.47384   344.00000  27.67677             16.03598
1585.96833  904.39819   221.00000  19.95414             14.28868
1587.08763  664.30412   194.00000  18.47389             13.98229
1587.39891  498.83607   183.00000  16.44460             14.21145
1589.60714  132.04592   196.00000  17.40869             14.36782
1590.52652  643.47727   264.00000  19.10128             17.82662
1591.55725  692.30534   262.00000  20.49106             17.10073
1589.91154  830.36154   260.00000  24.23671             13.87292
1588.33735  1195.15663  83.00000   12.06049             8.83551
1593.09494  234.75949   158.00000  18.46519             10.93790
1599.09610  674.17417   333.00000  24.57356             18.40876
1594.60606  464.39394   198.00000  17.15801             14.70348
1592.71930  1265.52632  57.00000   12.28367             5.99834
1599.74031  756.59690   258.00000  23.74264             14.02944
1595.64929  807.80095   211.00000  19.35839             14.04045
1600.07627  1038.80508  236.00000  20.05459             15.16779
1600.82212  1212.81731  208.00000  19.28637             13.91165
1600.91133  728.04433   203.00000  22.96902             11.72892
1599.84058  896.93237   207.00000  17.97502             14.76036
1600.35870  970.40580   276.00000  19.31956             18.37382
1600.70000  51.77059    170.00000  16.35331             13.53445
1602.10000  1135.12414  290.00000  26.32211             14.35637
1603.20000  910.42424   165.00000  15.54004             13.67433
1605.24490  1085.55102  245.00000  23.88201             13.19104
1605.39545  153.48636   220.00000  18.98960             14.87703
1605.95886  1170.75949  316.00000  27.87517             14.66235
1607.10256  409.80769   78.00000   10.29238             9.82797
1615.54054  822.19257   296.00000  29.80896             13.07962
1609.45946  177.21081   185.00000  17.71709             13.40370
1613.23377  351.35390   308.00000  27.96989             15.32681
1617.28936  843.98723   235.00000  23.74637             12.80199
1611.59006  332.13043   161.00000  18.57635             11.19373
1614.44898  987.33878   245.00000  18.89600             16.63246
1615.98701  1208.67532  231.00000  20.24585             15.25486
1615.03817  107.84733   131.00000  15.15088             11.09748
1618.37073  722.62927   205.00000  16.55115             15.91143
1617.97312  737.98387   186.00000  16.26658             14.62895
1622.61644  857.17123   292.00000  24.09516             15.55362
1619.77838  421.53514   185.00000  16.81569             14.25767
1620.08750  324.25000   160.00000  16.47069             12.46571
1624.02432  1031.72948  329.00000  23.68556             17.90898
1618.71717  305.89899   99.00000   12.77009             10.02657
1625.01227  565.08589   163.00000  24.07843             9.03902
1624.16850  1007.74359  273.00000  20.04912             17.41329
1625.56250  769.49554   224.00000  27.62945             10.53468
1624.29545  960.93182   220.00000  19.95266             14.26956
1623.10559  135.36646   161.00000  19.36979             10.67764
1632.53894  806.30218   321.00000  25.71165             16.70467
1629.34659  300.83523   176.00000  18.60946             12.10802
1631.64398  395.12042   191.00000  20.19679             12.06818
1630.71508  534.03911   179.00000  16.59667             13.86802
1634.92511  1394.30396  227.00000  18.35923             15.97288
1637.16667  658.04487   156.00000  15.53986             12.80165
1639.72510  675.64143   251.00000  21.11502             15.85508
1638.06154  1059.08462  260.00000  22.19299             15.05183
1642.43541  909.13397   209.00000  19.21551             14.08241
1644.58545  924.74909   275.00000  24.52941             14.37340
1641.38996  337.51737   259.00000  20.81814             15.86177
1640.38636  546.19697   132.00000  14.32371             11.73202
1643.01198  790.80240   167.00000  17.10478             12.49180
1642.80753  1460.40167  239.00000  18.21647             16.92658
1644.15730  615.30899   178.00000  20.72872             11.08665
1648.09211  1412.28509  228.00000  20.99590             13.87092
1645.36735  1351.55782  147.00000  14.88350             12.67154
1646.82184  972.50575   174.00000  19.71231             11.33488
1655.37912  899.76923   364.00000  25.34583             19.25131
1652.19328  988.70588   238.00000  22.01465             14.22846
1651.61589  625.80795   151.00000  16.87388             11.48121
1654.57692  443.00000   182.00000  18.10508             12.90291
1656.57055  344.10429   163.00000  17.43241             12.31607
1660.64136  857.18063   382.00000  26.72215             19.62144
1654.12346  230.08642   81.00000   11.04700             9.37927
1658.07805  538.89268   205.00000  18.47208             14.33954
1657.71103  1140.92776  263.00000  19.42169             17.28914
1660.81661  1248.30104  289.00000  23.55379             16.08862
1658.04268  1379.20122  164.00000  15.74543             13.31749
1660.98198  967.10360   222.00000  20.34044             14.27148
1659.57377  713.51639   122.00000  14.52905             10.83235
1659.72656  748.41406   256.00000  29.36810             11.43790
1662.68932  583.14563   206.00000  23.23623             11.42387
1661.52518  170.28777   139.00000  13.89344             12.85771
1661.78992  642.00840   119.00000  14.57117             10.48483
1664.47126  1170.78161  261.00000  21.26054             15.73374
1666.45856  679.62983   181.00000  18.15198             12.80101
1666.11795  788.26154   195.00000  17.35331             14.37330
1667.72300  1088.38967  213.00000  20.91660             13.06694
1671.38403  1040.97338  263.00000  23.95086             14.14269
1669.57333  1386.14222  225.00000  19.79655             14.56534
1670.20395  450.19737   152.00000  16.69950             11.63234
1670.40704  607.18593   199.00000  17.62211             14.46903
1670.25000  704.82692   104.00000  17.10119             7.95617
1673.36201  1326.18280  279.00000  20.99539             16.98331
1673.75829  1491.65403  211.00000  19.05884             14.27209
1675.96476  734.88987   227.00000  22.09358             13.25501
1672.82927  508.92073   164.00000  18.01806             11.80129
1676.30204  1106.47347  245.00000  23.17984             13.54477
1677.01775  226.01775   169.00000  16.02494             13.50856
1680.68482  1300.68872  257.00000  26.37892             12.82390
1683.38079  636.52649   302.00000  21.43665             18.04904
1680.52466  928.10314   223.00000  23.14440             12.70128
1682.85340  1341.96859  191.00000  16.56296             14.91862
1681.98246  612.71930   114.00000  13.13555             11.34849
1685.10377  1052.09434  212.00000  22.62851             12.20324
1684.31624  1362.17949  234.00000  19.80304             15.09789
1685.85393  752.08427   178.00000  19.73413             11.59412
1687.52489  1216.20362  221.00000  18.74091             15.13905
1686.71193  432.35391   243.00000  21.32004             14.68688
1691.04717  830.97170   212.00000  21.38172             12.77306
1688.70588  1006.13529  170.00000  16.93591             12.83255
1689.42291  355.62996   227.00000  18.59209             15.55365
1690.35829  399.36898   187.00000  17.23392             13.88495
1692.29487  849.67949   312.00000  25.78739             15.69506
1690.89944  941.87709   179.00000  19.84530             11.66170
1690.61765  1088.28431  204.00000  17.91696             14.51088
1692.20264  1150.30396  227.00000  18.14078             16.04788
1696.93907  716.90323   279.00000  29.97370             11.98352
1696.40294  1268.78235  340.00000  23.04843             19.05169
1696.58738  760.53883   206.00000  20.51585             12.85627
1697.37569  462.93370   181.00000  19.40953             11.88490
1696.91787  1114.39130  207.00000  19.05863             14.04919
1699.90308  1164.85463  227.00000  20.18986             14.49974
1696.84672  1502.20438  137.00000  14.72988             11.92805
1700.25000  988.51623   308.00000  27.40243             14.44015
1701.03333  301.11905   210.00000  17.42508             15.42688
1700.66260  1035.02033  246.00000  20.48662             15.48140
1700.29508  174.63115   122.00000  14.06423             11.08852
1705.01327  915.86283   226.00000  28.42891             10.49515
1702.46452  440.49677   155.00000  16.11696             12.28023
1703.08252  1250.97087  206.00000  17.48005             15.16624
1701.78400  388.28000   125.00000  13.19224             12.07295
1707.48125  584.80625   160.00000  16.41494             12.48373
1708.43575  948.89944   179.00000  18.07099             12.67313
1708.15263  486.25789   190.00000  20.74436             11.72595
1709.60584  334.79562   137.00000  14.75525             12.03784
1708.88462  1006.02885  104.00000  12.15282             11.00725
1709.27835  1477.61340  194.00000  20.31295             12.38558
1710.79710  1498.50725  138.00000  16.80295             10.51506
1711.17073  90.02439    164.00000  15.06578             13.92173
1710.72000  367.20571   175.00000  15.34254             14.56809
1717.86364  1130.70629  286.00000  27.97163             13.06978
1712.66400  292.26400   125.00000  14.09305             11.35043
1718.78409  645.10795   176.00000  23.47602             9.62187
1715.57143  738.73016   252.00000  23.29897             13.92407
1715.03704  785.04938   243.00000  24.57849             12.69916
1716.24479  449.32812   192.00000  19.46546             12.66549
1717.29714  632.44000   175.00000  16.86998             13.39646
1723.84698  1011.86477  281.00000  34.10899             11.25482
1717.95946  1402.08108  222.00000  20.97666             13.51380
1719.03167  1047.49321  221.00000  20.45039             13.94852
1717.94737  398.22105   190.00000  19.23489             12.60464
1718.96863  1435.57255  255.00000  24.76877             13.47213
1719.84080  1162.04478  201.00000  17.78338             14.56399
1721.36123  717.63436   227.00000  17.82656             16.39262
1722.78947  663.60766   209.00000  19.43215             13.80120
1725.62295  506.89836   305.00000  25.55052             16.70722
1723.62810  991.35537   242.00000  20.79346             14.88780
1727.03763  703.75269   186.00000  19.35160             12.77760
1724.37576  340.62424   165.00000  15.83053             13.28854
1725.05525  529.46409   181.00000  17.85260             12.90851
1728.68075  950.21596   213.00000  22.25085             12.61740
1725.50000  283.56098   164.00000  15.24885             13.68633
1725.14286  585.42857   105.00000  12.75819             10.93276
1727.26804  623.36082   194.00000  16.90159             14.79796
1729.03433  224.23605   233.00000  18.03445             16.56392
1729.04683  1103.42149  363.00000  37.24117             12.86903
1730.77561  1508.58537  205.00000  17.60512             14.86282
1730.86364  264.07792   154.00000  16.03602             12.26586
1733.34634  1282.06341  205.00000  18.62008             14.08101
1733.35870  321.28804   184.00000  17.19144             13.67729
1733.80556  668.71667   180.00000  18.55134             12.44019
1734.74157  837.56180   178.00000  19.83091             11.60728
1741.27615  1024.76569  239.00000  26.58325             11.71712
1737.91364  1199.12727  220.00000  18.80861             15.21134
1738.56951  584.13901   223.00000  20.08408             14.22281
1739.55789  101.75789   95.00000   12.35524             9.76776
1742.35404  349.21118   161.00000  18.02280             11.63897
1743.59487  559.25641   195.00000  18.69525             13.38194
1739.69006  852.16374   171.00000  21.27776             10.41500
1743.20725  1233.21762  193.00000  20.52575             12.14271
1744.59116  393.34807   181.00000  17.90377             12.94153
1745.66102  929.04520   177.00000  15.60164             14.54566
1747.84016  1170.79508  244.00000  19.83613             15.73983
1747.48947  903.18947   190.00000  16.44451             14.94804
1752.73232  916.25758   198.00000  25.77377             9.94581
1749.34896  981.48958   192.00000  17.47121             14.01986
1749.16084  630.72028   143.00000  15.02530             12.25548
1753.09709  719.08738   206.00000  19.81722             13.26120
1752.46465  374.62626   198.00000  18.46678             13.73765
1755.01531  209.77041   196.00000  16.14102             15.55529
1753.64815  1352.34259  216.00000  19.34178             14.49265
1755.38235  664.66176   204.00000  22.34046             11.68327
1755.63871  1086.42581  155.00000  15.10051             13.26521
1756.85714  953.98137   161.00000  16.58151             12.46714
1760.59276  854.86878   221.00000  21.98841             13.07227
1757.45783  841.89157   166.00000  17.23529             12.37683
1759.76230  1298.73770  122.00000  15.85605             9.85587
1761.25000  1147.05769  156.00000  15.73269             12.64276
1760.16038  1191.39623  106.00000  13.53620             10.02443
1762.44186  469.55233   172.00000  17.73782             12.52597
1762.86239  1500.68349  218.00000  20.62197             13.58031
1763.72170  432.70755   212.00000  21.72553             13.21082
1765.37295  619.31557   244.00000  19.63287             16.45193
1766.55344  874.36260   262.00000  23.27240             14.46982
1767.81731  402.11538   208.00000  19.86023             13.40124
1769.50417  1119.97500  240.00000  25.76555             13.13492
1769.03846  510.30288   208.00000  18.13943             14.77031
1768.76042  1045.90625  192.00000  17.48915             14.15641
1770.46818  745.56364   220.00000  26.86397             10.91415
1768.32022  1211.77528  178.00000  17.58830             12.97277
1769.26496  1314.63248  234.00000  20.58339             14.67996
1773.30729  535.84896   192.00000  17.47143             14.16121
1772.25333  1088.23333  150.00000  16.12476             12.07811
1774.38095  245.66667   147.00000  16.53075             11.36509
1775.86154  212.05641   195.00000  18.60322             13.35524
1777.48669  554.87452   263.00000  20.86019             16.22995
1776.41758  453.80220   182.00000  18.74814             12.39962
1778.11053  388.20000   190.00000  16.09400             15.25435
1779.14754  481.61202   183.00000  20.13739             11.63524
1780.29237  522.55508   236.00000  19.33024             15.65227
1779.07000  692.71000   200.00000  16.70095             15.36146
1778.57286  676.09548   199.00000  20.28378             12.58123
1781.01449  1242.66667  138.00000  15.43781             11.45161
1782.66495  803.64433   194.00000  16.81670             14.81352
1784.28837  1230.90698  215.00000  20.32984             13.59757
1783.47541  884.27869   122.00000  13.56929             11.50335
1785.99091  967.86818   220.00000  20.93898             13.57698
1785.08571  1043.54857  175.00000  16.22881             13.73843
1787.06757  1088.60811  148.00000  16.89989             11.35538
1785.80556  894.29167   72.00000   10.99353             8.54131
1789.30220  929.04945   182.00000  18.63562             12.57436
1787.19481  344.31169   77.00000   11.14081             8.99387
1791.89778  1012.88444  225.00000  18.60901             15.50769
1793.04412  1209.17647  204.00000  19.79179             13.20097
1790.49143  602.39429   175.00000  17.08859             13.12990
1794.81250  487.47396   192.00000  18.28206             13.43601
1794.19075  458.24277   173.00000  17.85831             12.34643
1795.98951  764.25524   286.00000  22.68248             16.30605
1795.16564  429.06748   163.00000  16.56519             12.57626
1794.98113  861.02830   212.00000  20.13604             13.47369
1795.77326  900.47093   172.00000  20.19296             11.09636
1798.58824  1165.10084  238.00000  25.35611             12.22095
1800.40000  828.80000   275.00000  21.21486             16.61441
1800.82703  1125.07027  185.00000  17.31282             13.60725
1801.25904  845.06024   166.00000  15.20232             14.03434
1805.63455  1189.61130  301.00000  25.67985             16.87528
1801.19249  1274.10329  213.00000  22.57479             12.06711
1804.12500  717.12829   304.00000  22.52832             17.22646
1804.40316  1048.98419  253.00000  20.88939             15.68215
1804.15827  192.28058   139.00000  15.60009             11.41682
1805.65471  556.98655   223.00000  22.91586             12.43251
1810.25967  303.66851   181.00000  17.90473             12.90631
1810.74872  473.45641   195.00000  21.12878             11.83219
1812.00427  859.46154   234.00000  18.07735             16.98231
1811.08163  948.64490   245.00000  25.81786             12.31358
1814.50000  688.02239   268.00000  21.49196             15.97754
1814.55906  387.10236   127.00000  14.29592             11.30682
1819.56184  617.40989   283.00000  21.30860             17.09834
1816.33125  404.35625   160.00000  14.93454             13.74675
1818.15455  570.72727   220.00000  21.06009             13.32087
1817.50588  1223.93529  170.00000  16.86055             12.95177
1818.71622  173.38514   148.00000  14.60592             13.01890
1818.39837  1040.97154  246.00000  23.36339             13.47891
1822.13061  1478.31429  245.00000  19.92460             15.80641
1820.32308  1121.84615  195.00000  19.24648             12.96133
1821.47170  880.00000   265.00000  21.46041             15.74935
1822.92965  986.85427   199.00000  23.28632             11.14734
1824.34857  792.80571   175.00000  16.66272             13.55750
1825.39200  1085.58400  250.00000  18.49669             17.29292
1824.83898  781.90678   118.00000  14.49294             10.56269
1826.87310  600.26396   197.00000  17.30379             14.53574
1827.44326  706.46454   282.00000  26.55234             13.77353
1832.97423  1009.54124  194.00000  20.95478             11.83013
1831.63448  386.52414   145.00000  14.38631             12.96857
1834.03982  424.53982   226.00000  17.53472             16.48345
1836.63600  760.34000   250.00000  18.12110             17.77572
1838.16471  731.28627   255.00000  23.86976             13.64319
1837.89488  849.89488   371.00000  28.98897             16.44914
1843.51439  636.32014   278.00000  32.00911             11.27759
1836.81513  1045.21008  119.00000  13.17894             11.52507
1838.93939  1106.45960  198.00000  22.61297             11.34415
1842.84462  460.58566   251.00000  19.86165             16.12573
1844.42739  660.39419   241.00000  19.29292             16.07455
1841.16000  332.61000   100.00000  12.21933             10.41560
1841.92453  373.76101   159.00000  16.81882             12.14987
1843.56771  707.26562   192.00000  18.15962             13.78197
1843.33028  1202.65138  218.00000  18.19534             15.29380
1845.05236  1472.06806  191.00000  18.44682             13.21728
1845.97516  404.27950   161.00000  14.86859             13.91993
1846.50000  800.00833   240.00000  19.96418             15.49507
1846.54167  885.67500   240.00000  19.98135             15.48638
1848.34842  940.65158   221.00000  19.61827             14.48541
1848.77863  180.61832   131.00000  15.79426             10.73230
1852.63855  912.88554   332.00000  22.32163             19.58298
1847.88272  1017.14198  162.00000  19.45964             10.65923
1852.10734  965.08475   177.00000  18.72824             12.08090
1854.37063  870.96503   143.00000  15.70415             11.61630
1854.31280  1300.08531  211.00000  25.44605             11.03856
1856.43697  687.76471   238.00000  19.69335             15.54919
1856.51739  749.36522   230.00000  19.78700             14.93539
1860.23618  1053.38191  199.00000  19.21554             13.46348
1861.65789  1359.22632  190.00000  21.31605             11.46286
1860.45802  455.32061   131.00000  15.06578             11.08839
1861.32836  650.26119   134.00000  14.57742             11.91869
1860.80795  1198.94702  151.00000  15.02030             12.82307
1863.34123  507.21327   211.00000  18.02845             15.00854
1864.14453  1093.76562  256.00000  20.34372             16.30130
1863.63918  1074.03093  194.00000  19.95460             12.45379
1868.60733  1466.47644  191.00000  24.95419             10.68766
1865.97861  564.03209   187.00000  22.14960             11.02948
1869.20382  610.91720   157.00000  16.10719             12.45273
1869.74157  769.14981   267.00000  21.91730             16.94058
1868.84838  817.65343   277.00000  22.15495             15.93971
1870.83422  954.37968   187.00000  21.42383             11.15212
1868.70588  376.52206   136.00000  16.75850             10.57726
1871.42714  745.82915   199.00000  17.21042             14.81793
1873.66667  1314.09290  183.00000  25.76377             9.58231
1876.04184  1387.54393  239.00000  22.01463             13.92269
1874.19708  1042.89051  137.00000  16.20740             10.83837
1878.82524  1173.50000  206.00000  19.57155             13.73112
1879.17089  585.41772   158.00000  15.42902             13.05113
1878.96552  935.84483   174.00000  15.65904             14.17783
1876.98551  153.79710   69.00000   11.03700             8.26820
1879.78519  559.17037   135.00000  14.91825             11.61379
1882.55963  859.07798   218.00000  22.99393             12.16878
1879.94545  977.59091   110.00000  14.96391             9.78921
1883.60476  997.31429   210.00000  18.49147             14.52109
1885.25140  838.01676   179.00000  16.33847             13.99819
1885.35023  891.56682   217.00000  19.51937             14.27388
1887.85635  1122.48066  181.00000  17.17506             13.55473
1890.88732  687.54930   213.00000  18.12079             15.01347
1893.57059  554.41176   170.00000  16.23356             13.57798
1892.14894  276.06383   94.00000   11.86732             10.12380
1899.71333  905.40000   150.00000  17.61788             10.88496
1903.33974  1068.20513  156.00000  15.54994             12.82975
1903.09677  493.32796   186.00000  18.33882             12.96355
1906.47511  1000.75566  221.00000  20.67775             13.84103
1903.00000  1124.83673  98.00000   13.67621             9.12298
1905.98947  712.91579   190.00000  17.44079             13.91245
1910.33577  596.47080   274.00000  22.83569             15.56193
1909.34836  818.38934   244.00000  20.34923             15.54373
1910.38547  950.59777   179.00000  15.93970             14.29768
1916.90909  567.90909   286.00000  23.71046             16.00384
1911.58333  268.76852   108.00000  12.31190             11.24988
1915.38158  636.23684   228.00000  18.34462             16.00774
1918.65608  666.37566   189.00000  17.63321             13.78325
1915.13084  912.57944   107.00000  13.60101             10.36989
1916.37624  1600.57426  101.00000  12.65825             10.24791
1921.20787  1035.77528  178.00000  16.72608             13.62077
1920.34459  1076.88514  148.00000  16.09305             11.82233
1923.98077  1009.43269  104.00000  13.23838             10.00257
1931.07658  775.70721   222.00000  27.02889             12.34090
1933.92462  757.02513   199.00000  17.71843             14.33015
1932.88971  1309.32353  136.00000  14.46936             12.23078
1935.80000  1504.52105  190.00000  18.59541             13.16316
1936.39655  1386.17586  290.00000  21.50441             17.38761
1937.67347  718.13776   196.00000  17.07284             14.70730
1938.48077  842.07692   208.00000  18.43452             14.44055
1935.98667  1008.37333  75.00000   11.84201             8.09530
1941.15854  922.75000   164.00000  15.45836             13.74783
1947.70134  563.03356   298.00000  23.61259             16.16630
1944.31638  742.16949   177.00000  18.45524             12.26212
1944.42500  1171.58500  200.00000  17.58051             14.82161
1945.94712  1153.12981  208.00000  18.23619             14.78214
1947.08594  1444.38281  128.00000  16.03332             10.28201
1948.09032  791.60645   155.00000  15.87205             12.69487
1949.21782  422.97030   101.00000  13.44745             9.59047
1950.35200  1055.76000  125.00000  14.67824             11.09726
1952.96429  1131.27232  224.00000  17.15984             16.66832
1953.22024  526.08333   168.00000  14.84877             14.42413
1953.05376  340.07527   93.00000   13.52183             9.09162
1956.35349  1013.56279  215.00000  18.46830             14.87386
1956.35429  1083.04000  175.00000  18.66124             12.08677
1955.48128  1213.20321  187.00000  16.66863             14.38856
1959.06977  692.45581   215.00000  20.47675             13.41704
1955.85417  999.50000   96.00000   11.93536             10.25704
1965.27751  1121.36364  209.00000  17.24321             15.56444
1964.72826  718.29348   184.00000  18.61085             12.65386
1965.72928  853.89503   181.00000  16.06084             14.48237
1965.89706  881.00000   136.00000  14.74685             11.82255
1970.13846  672.73333   195.00000  17.94196             13.91569
1969.95031  792.93168   161.00000  19.39211             10.63364
1968.67742  921.47312   93.00000   11.37605             10.47093
1970.56388  941.89868   227.00000  20.22263             14.31292
1973.00483  1428.79227  207.00000  18.04172             14.72677
1974.47337  607.98817   169.00000  18.25357             11.99904
1975.99048  1346.51429  210.00000  17.77953             15.07183
1977.68657  1022.62189  201.00000  18.16452             14.11685
1976.78417  1258.85612  139.00000  16.30021             10.88015
1982.77922  577.77489   231.00000  20.31710             14.64491
1982.04327  1105.99519  208.00000  19.44514             13.68359
1983.62832  717.01770   113.00000  15.36415             9.74870
1987.60993  1270.74468  141.00000  14.24067             12.64556
1989.72258  735.62581   155.00000  16.98055             11.70865
1990.91096  1173.97260  146.00000  16.83990             11.14805
1994.09028  999.54861   144.00000  16.09450             11.41242
1994.81034  1154.17241  174.00000  16.24753             13.69877
1996.55556  844.99471   189.00000  16.29728             14.84237
1999.96104  879.29870   231.00000  20.00680             15.03153
1997.38624  1088.47090  189.00000  17.00906             14.18380
1997.92647  973.34559   136.00000  15.70951             11.08426
2000.54248  646.18954   153.00000  19.96344             9.99058
2002.27826  1192.73913  115.00000  13.38189             11.00303
2004.37563  1380.06091  197.00000  17.14106             14.84092
2003.44156  545.00000   77.00000   12.30127             8.18936
2009.40132  678.57895   152.00000  15.65744             12.39947
2007.26471  693.43137   102.00000  12.09929             10.85821
2009.31405  629.95868   121.00000  13.05527             11.96086
2016.72500  1199.84500  200.00000  20.64942             12.54142
2020.61616  975.82323   198.00000  21.11462             12.04883
2024.16908  1521.63768  207.00000  18.66992             14.19624
2032.60000  1233.83243  185.00000  18.73528             12.64789
2031.32000  873.18000   50.00000   9.51546              6.77195
2034.33628  487.42478   113.00000  14.04279             10.26452
2036.75824  1029.58242  91.00000   14.54892             8.86463
2041.20225  541.53933   89.00000   12.30472             9.29202