# Filename: Nuclei_416_bidi_60x_019.npz
# Voxel size (nm): (108, 108)
# Area quantity: voxels
# Num nuclei detected: 888
Y           X           AREA       MAJOR_AXIS_LENGTH    MINOR_AXIS_LENGTH
5.10169     1037.01695  59.00000   8.98903              8.43581
8.04286     1184.92857  70.00000   9.83924              9.04551
16.76415    1263.89623  106.00000  12.64500             10.76438
30.28495    1293.33333  186.00000  18.39841             13.01166
35.52830    1402.96855  159.00000  16.12678             12.60924
37.90071    860.10638   141.00000  14.23081             12.64616
37.90984    1201.65574  122.00000  13.84763             11.29865
54.50435    907.33913   230.00000  19.20217             15.35357
54.45455    1258.14876  121.00000  16.54245             9.56456
53.17391    1372.56522  69.00000   11.25469             7.95078
56.83688    1002.82270  141.00000  15.73383             11.48420
58.20155    1651.49612  129.00000  15.79943             10.43803
64.04040    603.43434   99.00000   14.81098             9.40097
66.86709    808.08228   158.00000  15.97757             12.66200
71.35417    1399.99306  144.00000  16.12440             11.41132
70.88281    1674.07031  128.00000  14.67686             11.26015
73.43500    654.52500   200.00000  16.80041             15.33325
73.46847    1246.36036  111.00000  13.38261             10.66279
73.17213    1270.00820  122.00000  14.05590             11.22012
76.53254    1604.14793  169.00000  18.17223             11.93005
80.47170    982.21226   212.00000  21.11037             12.84287
80.59783    565.01812   276.00000  22.60031             15.66019
79.08609    1331.43709  151.00000  15.72698             12.29562
81.94012    820.38922   167.00000  16.13229             13.25109
89.83815    1286.28902  173.00000  19.55512             11.32305
93.31132    906.13208   212.00000  21.07370             13.11033
91.09160    1367.03817  131.00000  13.57444             12.38091
93.56693    1638.41732  127.00000  16.44247             9.81160
96.19890    810.02762   181.00000  17.18020             13.50985
98.69608    1192.15686  102.00000  15.23400             8.60088
102.42523   977.13084   214.00000  18.18206             15.01908
103.39655   1256.40517  116.00000  16.14443             9.92423
111.84012   550.48547   344.00000  21.42270             20.56763
112.55844   1184.86147  231.00000  22.42878             13.18465
112.41885   1603.10995  191.00000  19.05154             12.92536
115.24870   1127.48187  193.00000  15.83382             15.56417
117.44565   1222.83152  184.00000  16.63651             14.20453
117.78659   1159.62805  164.00000  15.60395             13.49304
118.82692   1362.46154  156.00000  16.86232             11.90906
121.16197   1348.88732  142.00000  18.45000             9.86899
124.27108   1245.40361  166.00000  19.53979             11.07933
126.06122   1275.68163  245.00000  20.06980             15.58947
126.91620   1417.17318  179.00000  16.25164             14.11392
129.62069   851.95402   174.00000  16.25952             13.66109
133.80872   909.88926   298.00000  21.70373             17.59210
131.46903   745.29204   113.00000  12.98379             11.11750
144.79487   760.06667   195.00000  23.96052             11.22271
137.62162   1055.37838  37.00000   7.63882              6.18516
142.53125   1233.12500  128.00000  16.32975             10.10315
145.52282   79.50622    241.00000  23.03933             13.45540
149.42000   835.11500   200.00000  18.30650             14.11943
148.76774   1560.59355  155.00000  19.59814             10.81070
150.77064   1196.05963  218.00000  22.73557             12.38499
150.46875   881.17969   128.00000  16.63404             9.93234
153.30519   166.43182   308.00000  21.59783             18.26415
155.26616   233.88973   263.00000  21.75597             15.51536
149.07143   1065.50000  42.00000   7.92772              7.09950
154.81000   292.83000   200.00000  20.32980             12.57534
152.16418   1047.43284  67.00000   10.77386             7.90350
154.47020   1307.68212  151.00000  16.57969             11.62833
151.93407   1184.95604  91.00000   11.95779             9.81750
168.55060   1136.25000  336.00000  39.31853             11.68080
163.61702   940.72695   282.00000  24.57731             14.78420
163.31159   260.19565   276.00000  19.40907             18.17205
160.38750   1511.38750  80.00000   11.20893             9.09697
164.07333   1177.46667  150.00000  16.24693             11.80678
166.28455   848.04472   246.00000  22.10742             14.37305
168.26168   1283.01869  214.00000  21.70754             12.62763
172.08738   489.75081   309.00000  22.81244             17.34193
168.87313   184.44030   134.00000  13.77859             12.41028
172.43210   905.95885   243.00000  21.56069             14.60843
173.83770   890.59162   191.00000  18.65589             13.07044
178.70746   985.63284   335.00000  23.90523             17.89685
176.68939   830.70076   264.00000  21.68073             15.71333
178.26506   210.21084   166.00000  16.85408             12.67512
180.03704   334.21759   216.00000  19.84850             13.93099
180.54545   360.39205   176.00000  20.59918             10.92118
182.11801   777.78261   161.00000  17.11895             12.01757
184.50192   305.68582   261.00000  22.44680             14.95902
186.88158   1234.00000  152.00000  18.73809             10.41390
191.64394   1352.18182  264.00000  26.28962             12.92385
191.50820   661.05246   305.00000  23.45473             16.63438
187.26667   1112.82667  150.00000  14.58173             13.19980
194.83007   1258.57516  153.00000  17.51422             11.22878
198.10132   1695.77974  227.00000  17.75316             16.40053
200.57460   473.96825   315.00000  22.33015             18.05219
204.62783   868.71845   309.00000  25.91106             15.30298
201.38378   1245.14054  185.00000  18.34967             13.05584
202.34066   361.18132   182.00000  20.56061             12.18626
204.58228   308.65190   158.00000  18.52356             10.87537
209.77949   1391.16410  195.00000  16.20042             15.49885
210.89175   710.29897   194.00000  16.71050             14.88262
211.77619   727.20000   210.00000  18.88850             14.37830
212.80000   898.64615   260.00000  21.58456             15.54405
210.40455   1082.85909  220.00000  19.54174             14.36861
214.58964   1311.22311  251.00000  24.73178             13.09678
212.66292   1181.03371  178.00000  17.40859             13.06868
216.18000   1222.92500  200.00000  17.50200             14.68712
217.64894   1658.51064  188.00000  18.46380             13.04034
217.99412   1059.48235  170.00000  14.83519             14.62009
216.39773   1242.64773  88.00000   12.11408             9.26409
225.10542   1100.69578  332.00000  22.93070             18.70878
220.22308   1791.57692  130.00000  15.55610             11.21578
226.39759   627.21084   166.00000  17.73029             12.03954
228.99454   835.79235   183.00000  16.26806             14.36502
229.70073   1150.47445  137.00000  13.46211             13.05406
234.47436   1187.07265  234.00000  21.25646             14.06697
235.38947   508.40702   285.00000  25.62564             14.62046
234.52577   209.88660   194.00000  20.73482             12.01697
235.01053   922.11053   190.00000  18.92096             12.94320
239.19634   484.91885   382.00000  23.82336             20.55812
236.95610   680.76098   205.00000  18.28595             14.32637
236.68778   886.11312   221.00000  17.98731             15.72314
235.37255   1115.74510  102.00000  13.61343             9.66713
236.13445   1741.24370  119.00000  15.24164             10.02849
235.63889   1053.55556  72.00000   11.32569             8.09895
244.09896   240.93229   192.00000  21.58746             11.54347
242.52632   1028.53289  152.00000  15.23408             12.77744
242.54676   608.02878   139.00000  15.10945             11.77738
245.56818   1107.51705  176.00000  16.82961             13.40128
247.74595   1632.15135  185.00000  22.23198             10.72479
249.76995   402.30986   213.00000  23.88117             11.45564
246.85535   1134.61006  159.00000  15.51359             13.08636
247.83333   1199.39706  204.00000  19.11101             13.79537
249.66887   831.98675   151.00000  19.11156             10.27491
249.87209   1068.55814  172.00000  18.29167             12.04956
250.08466   1345.97884  189.00000  19.45584             12.57925
254.66418   609.40299   268.00000  24.23701             14.36570
256.73822   1079.07853  191.00000  22.60323             10.98993
261.00741   567.48889   270.00000  21.89866             15.77814
265.46452   889.60000   310.00000  21.44762             18.58060
266.23469   1208.09694  196.00000  17.67490             14.40928
268.12287   1256.75427  293.00000  20.73643             18.11532
264.43066   298.58394   137.00000  14.11243             12.49847
269.37500   597.00833   240.00000  19.55057             15.74984
274.29457   859.95349   129.00000  15.44546             10.64214
273.64000   1395.81600  125.00000  13.93932             11.43503
273.90441   1930.62500  136.00000  14.78198             11.93277
277.53540   338.41150   226.00000  21.93190             13.15586
286.76923   916.84615   286.00000  26.32728             13.90956
282.00730   317.08029   137.00000  16.16546             10.89051
284.30093   1608.09259  216.00000  20.81951             13.37212
286.15809   851.88235   272.00000  23.29607             14.88864
284.90947   1307.48971  243.00000  18.74135             16.55478
285.44495   1327.16514  218.00000  19.83566             14.03819
291.63536   358.14365   181.00000  18.29033             12.69710
294.42857   590.73980   196.00000  16.90917             14.93171
295.00599   1374.49102  167.00000  15.51307             13.87331
294.78519   1163.95556  135.00000  18.12153             9.58836
296.85039   260.17323   127.00000  14.19692             11.48240
297.95758   520.89091   165.00000  17.21840             12.23352
295.63014   950.78082   73.00000   10.64591             8.86321
303.56338   1171.88263  213.00000  21.20921             12.84970
301.97872   1493.36702  188.00000  17.41553             13.80042
304.46835   1469.36709  237.00000  19.69672             15.38788
306.76531   722.48469   196.00000  18.39068             13.82396
306.13793   1597.20690  145.00000  15.48872             12.19129
309.40840   1309.24427  262.00000  23.00064             14.82891
309.54375   916.34375   160.00000  15.02536             13.58739
312.40102   1119.66497  197.00000  21.25137             11.92405
310.40453   1252.56958  309.00000  28.03503             14.17646
312.36050   844.34796   319.00000  24.20590             16.88170
313.22176   676.71130   239.00000  18.25948             16.72826
313.02907   1281.77907  172.00000  17.00012             12.98180
315.61290   1147.49194  248.00000  20.76879             15.40215
316.37113   1633.89691  194.00000  18.67035             14.56633
317.86124   1330.19139  209.00000  18.44574             14.49597
321.56471   318.31373   255.00000  22.78167             14.28878
318.57436   382.15897   195.00000  17.09473             14.56147
317.22667   407.24000   150.00000  14.78401             12.99266
327.50153   587.23547   327.00000  30.16868             14.58825
321.91749   653.66997   303.00000  23.16231             16.76096
325.83942   862.60219   274.00000  26.46586             13.49239
321.03721   1369.54419  215.00000  18.07324             15.18820
320.80214   620.28342   187.00000  19.89222             12.01393
321.89506   1576.27160  162.00000  18.10397             11.49883
324.52500   558.16250   240.00000  18.73220             16.43793
325.11588   1054.27039  233.00000  23.06718             12.89963
324.97717   1295.13242  219.00000  18.21499             15.49600
325.61932   427.25000   176.00000  18.31560             12.30086
329.06047   921.19535   215.00000  18.21605             15.37166
332.66304   297.98551   276.00000  26.45585             13.45335
333.92713   1161.77733  247.00000  22.82630             13.86081
337.72662   1415.73141  417.00000  27.48102             19.54906
339.06646   204.56962   316.00000  25.01350             16.16683
336.12500   412.61979   192.00000  18.88176             13.07031
338.66082   1654.16959  171.00000  18.40300             12.07722
342.91000   1385.47000  300.00000  22.12502             17.40018
344.75314   252.26778   239.00000  20.10804             15.24488
345.78723   392.79787   188.00000  17.41665             13.92248
346.06075   1081.08411  214.00000  19.88154             14.37517
348.04891   312.88043   184.00000  18.48037             12.73271
348.55102   448.21429   294.00000  25.51370             15.64757
347.67500   928.33750   80.00000   12.11888             8.56856
353.82051   1212.08791  273.00000  22.17654             15.97210
357.43388   1311.26033  242.00000  18.38167             16.90326
360.90370   817.78889   270.00000  20.47885             17.12589
365.87970   1087.55263  266.00000  22.28366             15.25833
367.02174   1185.06957  230.00000  19.90793             14.84668
361.88333   343.95000   60.00000   11.29240             7.35463
370.25275   1345.30037  273.00000  27.89706             12.84705
365.87013   1143.11688  154.00000  16.96526             11.65312
369.96875   313.35938   192.00000  17.53110             13.97600
370.29358   368.99541   218.00000  18.97434             14.72154
372.66837   245.15816   196.00000  18.13238             13.81495
375.58333   517.32812   192.00000  22.48695             11.02663
380.11327   1282.68932  309.00000  27.18467             14.87492
377.05556   1136.67284  162.00000  19.48617             10.75697
378.40945   814.71654   127.00000  13.27278             12.22457
387.15415   801.29644   253.00000  23.03094             14.13748
384.33766   1108.26623  154.00000  16.55672             11.87849
385.15761   190.58696   184.00000  19.49299             12.08414
393.40116   1099.40116  172.00000  17.73054             12.43828
400.50182   303.10545   275.00000  23.76232             14.83741
396.29167   1300.75000  240.00000  23.30029             13.22379
402.98745   1161.00418  239.00000  28.08080             11.13258
397.24590   895.50820   61.00000   9.94889              7.98679
399.71939   1319.18367  196.00000  16.96717             14.73677
402.93993   272.06360   283.00000  23.22607             15.69192
405.68613   170.57664   137.00000  14.69602             12.04216
413.74222   1077.04444  225.00000  19.02129             15.29249
422.46726   1096.19048  336.00000  25.63756             17.24678
422.96283   1346.34944  269.00000  20.14979             17.19111
421.97600   177.92000   125.00000  14.91170             10.69100
426.15000   854.72500   40.00000   7.96438              6.40302
435.46119   299.56164   219.00000  17.02398             16.41801
436.39024   1265.05285  246.00000  20.59280             15.40114
436.42105   1618.72932  133.00000  15.69137             10.85782
438.10440   1161.29670  182.00000  17.28783             13.46174
447.23507   805.55597   268.00000  26.35520             13.19851
446.01777   1357.52030  394.00000  26.55342             19.09688
445.31492   1112.71823  181.00000  18.29288             12.65673
448.60455   1178.24545  220.00000  23.72790             11.90237
444.91935   853.59677   62.00000   9.92189              7.93597
446.85393   888.89888   89.00000   12.25455             9.24910
455.71023   1229.99716  352.00000  23.47364             19.54852
462.61303   1074.90421  261.00000  24.70435             13.57690
465.47449   1216.11224  196.00000  21.36108             12.00264
469.52632   972.79224   361.00000  30.04041             15.50254
466.34463   797.49153   177.00000  17.94917             12.64975
465.76296   1129.66296  270.00000  22.23566             15.95131
467.02415   1175.29469  207.00000  18.43936             14.49177
468.93478   1594.70109  184.00000  18.14461             13.02061
470.10965   306.05702   228.00000  19.03125             15.39044
473.65868   1382.68563  334.00000  23.83182             17.95404
479.40000   823.44615   65.00000   10.73837             7.80065
487.21610   1247.19915  236.00000  27.27514             11.24338
482.01429   632.90000   70.00000   9.93564              9.01300
492.57692   1090.55556  234.00000  28.59283             10.57079
494.16498   209.29966   297.00000  23.27851             16.32734
494.91342   1047.94805  231.00000  18.85608             15.90963
500.91860   301.89147   258.00000  22.55265             14.65833
498.76995   1135.15962  213.00000  17.88752             15.23719
494.87037   819.14815   54.00000   9.45679              7.28424
498.47222   827.57407   108.00000  12.73072             10.85489
501.82716   640.45679   81.00000   10.40245             9.89686
501.19481   660.90909   77.00000   10.42169             9.47175
501.37681   650.44928   69.00000   10.64979             8.23087
509.81452   1592.82661  248.00000  24.88721             12.74749
510.86861   672.61314   137.00000  14.59011             12.07964
518.85714   1086.40729  329.00000  22.22342             19.28358
527.73864   1218.92803  264.00000  20.63251             16.35690
531.50670   1011.61394  373.00000  27.74182             17.28133
529.73874   205.73874   222.00000  20.41686             13.92367
532.35119   1672.80952  168.00000  16.67298             12.87044
532.57143   1264.02857  70.00000   9.77394              9.23524
541.96970   1343.09470  264.00000  24.02960             14.28484
542.02469   1287.44033  243.00000  18.02989             17.23740
542.70370   1072.51389  216.00000  17.71391             15.70310
544.58296   1256.63229  223.00000  19.35259             15.78817
543.42424   1812.77778  99.00000   13.08940             9.90601
549.49660   1321.14512  441.00000  32.71811             17.53209
557.52303   1049.34868  304.00000  21.18955             18.46467
560.72761   961.01119   268.00000  23.47822             14.65430
558.19212   1269.44335  203.00000  16.78584             15.50648
558.88333   1582.62222  180.00000  16.70674             13.76893
560.67514   1208.21469  354.00000  30.40207             15.22338
563.80074   184.61993   271.00000  19.88942             17.35380
571.02319   1238.24928  345.00000  28.40151             15.68246
574.66667   1076.23377  231.00000  25.06993             12.15975
567.29787   1173.61702  47.00000   8.93535              6.66282
577.11111   742.36364   99.00000   12.92429             9.82385
582.21711   1284.65132  304.00000  23.19918             16.71884
589.52688   939.47849   372.00000  30.62100             15.55745
586.58099   1004.73944  284.00000  21.68981             16.78934
584.90335   1202.91822  269.00000  22.59413             15.24422
591.42918   187.77682   233.00000  18.94297             15.70090
589.42328   1358.50794  189.00000  16.90957             14.34211
598.84252   1065.73228  254.00000  24.72490             13.76239
597.00356   1122.12456  281.00000  21.24907             17.17363
597.63694   1593.24204  157.00000  17.13839             11.82867
600.47802   989.67033   364.00000  21.94560             21.63295
602.27324   1160.25634  355.00000  26.34168             17.56131
600.59394   1791.77576  165.00000  16.84368             12.57507
609.05093   1280.90509  432.00000  34.40630             17.00061
610.38117   1375.37220  223.00000  17.76393             16.08638
615.76963   1087.25131  191.00000  19.60472             12.50149
613.72059   1765.40196  204.00000  19.02729             13.67446
615.75316   1314.91139  158.00000  16.66842             12.07780
622.46154   961.46439   351.00000  23.52238             19.75862
620.02410   183.58434   166.00000  16.74357             12.62479
624.82528   1389.13755  269.00000  22.14899             15.78830
622.80905   1172.39698  199.00000  20.49465             12.41898
627.33591   1434.35135  259.00000  22.41250             14.76193
631.73016   1358.60847  189.00000  16.62563             14.49292
632.45933   1787.51196  209.00000  16.81650             15.94757
636.43007   886.10839   286.00000  21.88103             16.67385
635.76984   1344.19048  126.00000  13.79165             11.69915
638.03150   1161.57480  254.00000  22.39580             14.51661
636.03125   1875.91406  128.00000  14.88294             10.93112
644.45387   1072.54613  271.00000  20.85209             16.78122
648.91011   1497.67416  267.00000  26.52690             13.98532
646.03061   216.26871   294.00000  22.29197             17.04955
650.43590   1039.61538  156.00000  15.83556             12.70705
654.43605   1172.30814  172.00000  18.47654             11.91092
655.55642   1351.99222  257.00000  18.74393             17.53014
654.72973   1383.65766  222.00000  25.47864             11.51154
654.65919   1749.77578  223.00000  18.34613             15.48915
663.28740   1162.53543  254.00000  24.95402             13.21843
659.10000   1032.64444  90.00000   12.97445             9.02175
662.55159   1046.96825  252.00000  21.70599             15.49083
659.08163   1399.74830  147.00000  15.35278             12.41085
660.41473   1481.22868  258.00000  21.73159             15.25577
666.93910   1108.47436  312.00000  28.58323             13.93044
661.09244   1607.15966  119.00000  14.03470             10.84630
662.62827   249.45026   191.00000  18.83959             13.01761
663.09091   1377.39773  88.00000   11.96167             9.50984
673.72872   1963.20745  188.00000  18.54300             12.94150
680.99684   280.93671   316.00000  23.39536             17.42064
680.55709   1081.17647  289.00000  24.94892             14.85958
682.92308   1438.34295  312.00000  25.68355             15.65229
680.69340   1534.65566  212.00000  19.81851             13.68841
683.10256   313.27564   156.00000  15.37677             12.93045
685.32487   1030.01523  197.00000  18.83312             13.44312
691.17059   990.02353   170.00000  17.79329             12.17160
693.75720   1382.06173  243.00000  25.67978             12.17523
686.61905   1391.57143  21.00000   6.25817              4.15798
691.77487   1405.16230  191.00000  18.16285             13.43665
689.96970   1888.57576  132.00000  14.20294             12.16005
692.94241   1358.01571  191.00000  16.94721             14.43317
698.00282   354.90960   354.00000  28.51628             15.96116
703.38202   1134.52060  267.00000  25.36738             13.86764
703.60870   388.99331   299.00000  24.27676             16.03594
703.06583   999.29154   319.00000  21.96614             19.16820
706.53268   1583.31699  306.00000  24.30644             16.52935
716.45954   1150.08960  346.00000  27.42551             16.47099
714.41231   1039.61231  325.00000  26.06675             16.09824
713.50000   1421.37079  178.00000  15.68501             14.56195
715.40828   1878.82840  169.00000  17.25268             12.54718
721.66781   1124.30822  292.00000  24.12401             15.51336
727.15556   1340.81481  270.00000  23.07071             15.69404
728.54148   1476.96070  229.00000  18.96792             15.59783
733.77907   1437.93023  258.00000  26.68135             12.38618
730.20690   1768.78017  232.00000  21.21994             13.96229
739.96739   1074.89130  276.00000  23.75365             15.13682
738.25269   1872.06452  186.00000  17.36667             13.66964
741.42616   1139.40928  237.00000  19.50673             15.58733
742.85068   1044.58371  221.00000  19.61755             14.39974
743.14146   1481.34146  205.00000  19.12196             13.92976
754.18182   1158.08300  253.00000  24.75728             13.19492
749.90058   1538.37427  171.00000  14.81133             14.74233
755.80374   1463.53894  321.00000  26.84863             15.50378
764.87500   1527.68750  144.00000  13.94402             13.15196
767.78039   1757.16471  255.00000  21.43933             15.27206
771.07724   1452.04878  246.00000  24.52995             12.87722
764.95238   1046.74286  105.00000  13.61002             10.05304
771.20779   1342.19481  308.00000  20.77486             18.91995
770.49545   1900.08636  220.00000  19.74670             14.26193
778.79936   1496.35350  314.00000  28.56346             14.96092
771.76494   1508.32669  251.00000  25.44886             12.84022
772.31638   1546.47458  177.00000  15.39828             14.73356
779.91093   1740.18623  247.00000  24.36349             13.60659
776.93981   994.02315   216.00000  19.85075             13.95070
789.61244   1345.88995  209.00000  20.89645             12.80606
788.07656   1808.07656  209.00000  16.79170             15.95792
789.66972   1508.03670  109.00000  12.36659             11.23632
805.77387   1163.33668  398.00000  36.60396             14.10907
800.59630   1438.80741  270.00000  23.96949             14.42565
798.29008   1172.22901  131.00000  15.28248             11.03986
796.42105   1141.84211  57.00000   10.52291             6.88741
806.11290   1482.45806  310.00000  27.83786             14.25558
804.93583   1712.19251  187.00000  15.89398             15.02317
809.42857   1508.22581  217.00000  19.85736             13.92325
810.93284   807.96642   268.00000  19.46618             17.66415
812.36325   1534.15812  234.00000  19.56820             15.29460
819.18110   1152.34646  127.00000  14.55897             11.16310
817.87379   1735.48544  103.00000  13.06039             10.02536
819.18400   1765.80800  125.00000  15.80965             10.16639
820.33333   1821.56970  165.00000  16.64016             12.65538
823.55135   1718.29730  185.00000  17.19679             13.75944
821.86452   1777.83871  155.00000  15.00566             13.30065
829.05677   1492.69432  229.00000  23.94244             12.24599
831.07738   1161.59524  168.00000  19.76425             10.91483
835.67742   789.20565   248.00000  21.83888             14.63576
834.56746   1730.22619  252.00000  19.48805             16.61967
841.03980   1439.08955  201.00000  16.94609             15.20014
843.64463   1552.12810  242.00000  21.66978             14.32118
851.15789   1459.11228  285.00000  23.90634             15.51950
873.43944   1509.63380  355.00000  36.13721             12.84926
876.90110   1193.71795  273.00000  25.30962             13.94866
874.93617   1463.27234  235.00000  23.56771             12.78465
877.35196   326.06145   179.00000  17.84971             12.86171
881.16463   1475.05488  164.00000  17.49223             11.96248
880.37267   309.01242   161.00000  14.68541             14.05411
883.51376   1581.27064  218.00000  19.06977             14.65111
890.36296   763.17407   270.00000  26.72908             13.31334
892.91031   1364.00000  223.00000  19.57403             14.70097
891.73885   1596.71338  157.00000  14.58571             13.85219
894.01181   1381.45276  254.00000  20.42065             16.10981
902.48617   299.79447   506.00000  30.96398             21.58903
895.76812   1574.82609  138.00000  15.01979             11.71971
897.70391   1187.53631  179.00000  15.60640             14.66801
901.35878   1209.16794  262.00000  21.37568             15.64652
899.91775   377.09957   231.00000  19.50102             15.10876
909.68145   752.38710   248.00000  23.65088             13.53259
921.45199   428.93677   427.00000  32.20802             18.04143
922.47601   1469.16605  271.00000  28.57310             12.79523
921.47761   1545.33831  201.00000  16.50629             15.55193
927.46209   730.75451   277.00000  21.16145             17.01051
926.44860   1329.89252  214.00000  18.67503             14.62003
928.47351   1600.89073  302.00000  23.63702             16.41039
932.52137   1483.66667  234.00000  24.26986             12.29242
938.72433   117.24525   526.00000  34.06326             21.65146
935.04461   1220.66543  269.00000  20.35834             16.92355
943.68013   1629.85859  297.00000  27.12489             14.12810
945.88462   1289.21923  260.00000  26.51931             12.65115
945.74038   1242.39423  208.00000  18.69591             14.41599
949.42735   275.45014   351.00000  23.75601             19.48206
946.05325   336.25444   169.00000  15.67025             13.94795
953.85666   317.33788   293.00000  25.44560             14.72862
953.07973   694.98007   301.00000  25.78398             14.95093
951.43716   1302.92350  183.00000  17.34623             13.75033
953.60294   440.91912   272.00000  22.85286             15.73874
958.67547   90.44906    265.00000  23.06016             14.76803
960.26619   1553.86331  139.00000  14.55678             12.18880
965.76923   661.93333   195.00000  21.10412             12.20216
962.39815   141.29630   108.00000  13.87937             10.59769
967.11915   1631.45106  235.00000  20.75701             14.48272
967.76037   1488.56682  217.00000  20.12717             13.75657
971.55639   1564.23684  266.00000  21.42733             16.00129
976.75771   638.46256   227.00000  25.51828             11.64362
983.79565   1496.47826  230.00000  25.45342             12.29085
988.66077   627.79646   339.00000  23.54176             18.89768
987.01818   551.19091   220.00000  24.25697             11.93132
988.23529   1221.90588  170.00000  16.18824             13.77706
988.74775   1652.52252  222.00000  18.30511             15.59410
990.53953   250.65116   215.00000  18.19089             15.07975
990.81013   596.86076   158.00000  14.81915             13.74126
995.16788   499.88321   274.00000  22.25066             15.80187
994.20149   607.66418   134.00000  16.54506             10.52011
997.50826   1228.74793  242.00000  27.47789             11.38424
998.35391   1564.46502  243.00000  19.12384             16.19150
997.84753   554.69507   223.00000  24.63844             12.07833
1008.73867  139.35467   375.00000  25.60949             20.65677
1000.81132  519.26415   53.00000   9.25633              7.30162
1008.09774  610.40226   266.00000  21.57773             15.83532
1005.38428  1495.55459  229.00000  19.50886             15.06313
1005.00000  293.31795   195.00000  17.18130             14.56254
1013.75668  1577.57270  337.00000  21.76129             20.01103
1014.80139  1672.63763  287.00000  21.94617             17.17738
1015.44700  650.54147   434.00000  26.33121             21.52045
1014.38261  542.81449   345.00000  33.38535             13.37350
1022.19149  573.07092   282.00000  27.13494             13.57273
1025.75697  455.05179   251.00000  29.23399             11.15926
1021.09442  1505.58369  233.00000  18.77713             16.03877
1024.96047  670.32411   253.00000  19.01443             17.03387
1023.80500  1192.49000  200.00000  17.65572             14.55148
1028.22951  467.59563   183.00000  17.04056             13.72073
1030.24540  262.90184   163.00000  15.30398             13.78033
1034.94850  1675.72961  233.00000  22.33426             13.45740
1033.42857  249.31527   203.00000  17.76397             14.67919
1040.88824  604.48824   170.00000  18.01420             12.10706
1045.90991  141.42943   333.00000  25.87750             16.74526
1047.68473  547.14778   203.00000  18.56072             13.94865
1047.91935  463.05376   186.00000  16.28671             14.65192
1050.08974  644.76923   234.00000  19.26442             15.65669
1054.13964  1160.72072  222.00000  19.80204             14.32865
1053.33571  594.26429   140.00000  15.73516             11.51388
1062.18545  524.93091   275.00000  25.29482             13.94469
1068.48000  392.47273   275.00000  22.29976             15.93112
1069.72180  1065.74436  266.00000  21.34227             16.25264
1068.80065  350.28758   306.00000  24.77284             15.77729
1068.05446  1141.97525  202.00000  19.38212             13.43406
1072.16418  414.73881   268.00000  26.10847             13.38927
1071.36885  202.53689   244.00000  29.06222             11.19464
1080.51220  617.08711   287.00000  33.23468             11.34267
1075.20543  482.96512   258.00000  21.50197             15.59896
1075.38189  295.01181   254.00000  24.49772             13.38404
1076.82105  1052.13158  190.00000  18.31167             13.25930
1081.88352  512.72443   352.00000  26.57327             17.48433
1082.22650  227.50427   234.00000  20.08545             15.09264
1084.18214  805.07143   280.00000  24.01788             15.28260
1086.52113  121.44601   213.00000  19.84391             13.78460
1086.03804  203.97283   184.00000  21.45037             11.26841
1090.46186  1150.16525  236.00000  18.91165             16.13474
1094.50246  629.10345   203.00000  21.35468             12.33296
1092.93750  217.22656   128.00000  13.82086             11.83110
1094.36744  1012.75814  215.00000  19.40707             14.12863
1096.52153  146.53110   209.00000  18.03413             14.77587
1097.55160  589.18861   281.00000  26.50832             14.63092
1098.80784  395.54118   255.00000  24.07676             13.54056
1105.19431  522.00948   211.00000  20.18654             13.46551
1105.46988  1109.71084  249.00000  23.57498             13.55134
1104.28839  1175.48315  267.00000  22.48423             15.38374
1108.70792  257.87624   202.00000  20.22887             12.75956
1111.76923  405.92308   247.00000  19.69175             16.32714
1109.72165  668.34536   194.00000  17.03028             14.53105
1112.02778  188.81111   180.00000  18.17522             12.62143
1115.32353  233.91544   272.00000  23.48277             14.97075
1113.30864  573.41975   81.00000   10.65651             9.77888
1117.78755  1011.33333  273.00000  20.95550             16.95266
1122.05948  271.36059   269.00000  22.37118             15.40323
1117.95833  507.68056   144.00000  14.46997             12.68698
1124.75000  657.69907   216.00000  19.16149             14.36880
1130.94359  144.55897   390.00000  30.01956             16.77947
1127.78730  519.46349   315.00000  26.83903             15.32133
1131.68258  1113.16706  419.00000  28.54273             19.61779
1128.08469  804.84039   307.00000  23.52364             16.77186
1134.91530  589.58743   366.00000  29.26301             16.73015
1133.72797  621.92337   261.00000  22.78220             14.66771
1132.71390  54.81744    367.00000  25.63811             18.46492
1125.68519  297.07407   54.00000   10.03943             6.95350
1135.18412  112.67148   277.00000  22.40248             15.88054
1132.38983  300.54237   59.00000   9.43288              8.00960
1136.75758  369.86869   297.00000  27.94798             14.04840
1139.75161  394.62903   310.00000  26.61030             15.02621
1140.32727  479.59545   220.00000  20.80788             13.60247
1142.86831  676.65844   243.00000  21.69091             14.30251
1142.61272  436.20809   173.00000  15.04750             14.68377
1144.21198  167.24885   217.00000  18.58166             14.96657
1148.79461  313.46801   297.00000  26.43171             14.44273
1146.26712  421.86986   146.00000  14.64247             12.80707
1150.96859  562.64921   191.00000  17.57599             13.87342
1150.93939  300.59596   99.00000   12.59421             10.21823
1157.31858  432.56637   226.00000  22.69934             13.00923
1161.14097  292.27313   227.00000  19.25011             15.33218
1162.25446  213.83036   224.00000  19.01666             15.22494
1164.88571  1055.07619  210.00000  18.17843             14.71199
1172.29240  165.92690   342.00000  22.88663             19.09503
1172.55274  304.31224   237.00000  21.11773             14.38641
1174.99016  79.07869    305.00000  23.94491             16.52171
1176.37861  414.54624   346.00000  28.53102             15.81687
1177.23003  431.45048   313.00000  26.58857             15.38626
1173.08261  497.82174   230.00000  18.53371             15.87633
1178.62329  633.82192   292.00000  23.58167             16.27262
1179.34518  386.73096   197.00000  16.96405             14.82484
1181.65179  804.62500   224.00000  20.17851             14.13438
1184.37198  663.87923   207.00000  20.39807             13.13854
1183.45247  1039.69962  263.00000  23.27758             14.88886
1184.11351  554.97838   185.00000  16.32761             14.46733
1187.82886  528.38591   298.00000  24.65630             15.45401
1194.76642  226.47810   274.00000  23.49887             15.38043
1192.02778  268.87222   180.00000  16.38411             14.16407
1197.15858  1109.06472  309.00000  25.28460             16.06337
1198.80272  297.05442   147.00000  16.64328             11.67318
1203.65789  632.09211   228.00000  22.71868             12.88384
1208.56119  537.48955   335.00000  24.48640             18.03005
1209.66572  247.89235   353.00000  28.10113             16.68544
1212.20285  691.14235   281.00000  24.11352             15.10263
1209.65196  562.35294   204.00000  17.22837             15.13460
1210.66010  75.62562    203.00000  18.75239             13.86638
1209.69333  343.41778   225.00000  20.17305             14.29046
1210.22373  408.59661   295.00000  26.75584             14.40770
1212.38281  796.11719   256.00000  20.06715             16.85215
1212.30841  279.08411   107.00000  13.94202             9.80673
1216.13523  373.34164   281.00000  22.15835             16.92523
1217.73864  389.76705   176.00000  16.07923             14.17253
1220.76094  514.24579   297.00000  23.65771             16.37917
1223.68029  631.83413   416.00000  33.46238             16.78946
1217.09589  145.62329   146.00000  17.40613             10.86054
1220.06875  495.07500   160.00000  14.91732             13.74074
1221.89796  221.47347   245.00000  22.18190             14.15764
1222.06250  444.15833   240.00000  19.09174             16.51793
1230.78313  144.53213   498.00000  38.20706             17.81921
1222.40693  356.46320   231.00000  22.51097             13.11442
1225.44758  583.19355   248.00000  19.68675             16.49384
1227.03089  1116.92664  259.00000  21.20002             15.90325
1227.73394  480.50000   218.00000  20.45559             13.56722
1230.15666  841.51958   383.00000  31.09878             16.35817
1228.91364  678.70455   220.00000  18.30988             15.40589
1230.68313  25.68724    243.00000  21.07570             14.75567
1234.65283  432.33585   265.00000  25.03258             13.54486
1229.86364  790.21212   66.00000   11.12138             8.03932
1230.67123  392.54110   146.00000  16.43306             11.43082
1234.62903  1004.84946  186.00000  16.50667             14.50465
1235.57143  254.36466   266.00000  22.41373             15.27056
1241.56690  979.59155   284.00000  23.65027             15.33503
1243.15470  382.01381   362.00000  33.14093             14.18543
1244.57209  464.59070   215.00000  20.20264             13.69472
1244.11913  486.20939   277.00000  23.73119             15.07632
1247.73714  1014.46857  175.00000  19.18804             11.67368
1252.10571  83.93429    350.00000  25.94149             17.45336
1252.16837  198.42347   196.00000  16.94510             14.79071
1261.43119  804.92049   327.00000  29.44558             14.54544
1261.79310  697.29119   261.00000  22.15197             16.14492
1260.98209  237.74925   335.00000  24.09194             18.06423
1263.12360  871.76966   356.00000  25.68181             17.95947
1264.43878  329.69048   294.00000  23.15663             16.92242
1267.45955  993.72168   309.00000  23.48787             17.73518
1272.57182  29.68564    369.00000  26.62265             17.84969
1267.86026  346.76419   229.00000  22.03159             13.36263
1268.93069  636.67822   202.00000  18.27957             14.12971
1275.50368  954.19853   272.00000  25.81729             13.78453
1277.39039  169.62162   333.00000  31.14542             13.85757
1282.99338  1126.05629  302.00000  25.77925             16.11592
1281.62821  495.64103   156.00000  16.72478             11.92747
1284.35398  437.76106   226.00000  18.81916             15.49709
1288.03960  277.97525   202.00000  18.06146             14.27891
1292.50809  606.88673   309.00000  26.97166             15.01670
1289.31481  1042.69259  270.00000  23.35887             14.90732
1294.51736  214.50694   288.00000  20.23259             18.27789
1294.09474  493.58947   190.00000  18.26341             13.50350
1295.52525  641.37374   198.00000  16.81150             15.10158
1296.33831  715.35323   201.00000  18.58206             13.76179
1291.43902  822.95122   41.00000   9.08113              5.81600
1300.64502  701.56710   231.00000  22.61419             13.12277
1301.19617  948.36364   209.00000  20.12991             13.42489
1301.89091  509.41455   275.00000  21.81601             16.38674
1302.12653  253.84082   245.00000  20.49668             15.36043
1302.23270  427.88679   159.00000  15.01279             13.74192
1307.41463  1313.41463  246.00000  22.90123             13.78521
1307.26639  131.15574   244.00000  23.89213             14.30018
1306.85556  538.35556   180.00000  17.37450             13.37797
1307.02752  1068.51682  327.00000  25.20350             16.64476
1310.43915  436.39683   189.00000  20.72646             12.21778
1310.85484  928.69032   310.00000  22.43756             18.70451
1311.17895  20.80526    190.00000  18.11417             13.55300
1315.32508  1120.56347  323.00000  22.32300             18.92276
1316.03581  830.17906   363.00000  24.45798             19.34281
1315.90244  1712.86063  287.00000  23.60340             15.55898
1321.06303  851.42857   238.00000  21.55395             14.14884
1321.94872  722.75824   273.00000  21.68088             16.22717
1322.24715  911.41825   263.00000  20.44989             17.01495
1323.77016  1669.32258  248.00000  19.78699             16.03917
1325.51568  106.25784   287.00000  21.37710             17.20143
1326.00000  88.20305    197.00000  16.77708             15.01072
1331.32819  249.88031   259.00000  20.42393             16.66938
1328.88024  678.20359   167.00000  15.87367             13.39483
1336.76762  873.91645   383.00000  28.09956             18.62416
1333.50273  1688.36066  183.00000  17.75975             13.15219
1339.55914  593.11828   186.00000  18.30977             13.03096
1339.66829  1644.35122  205.00000  16.91864             15.48614
1346.29373  136.53795   303.00000  20.27354             19.28429
1343.92672  1674.56897  232.00000  19.83538             14.96602
1345.71892  693.61081   185.00000  17.68371             13.35296
1346.07353  495.35784   204.00000  17.18750             15.19622
1344.17808  89.84932    146.00000  15.73319             11.86829
1345.77901  1315.49171  181.00000  16.50603             14.04749
1355.18103  466.49569   232.00000  20.72003             14.30519
1356.44130  531.65587   247.00000  21.38806             14.76789
1358.70120  592.89641   251.00000  21.51331             14.93544
1357.62963  485.11640   189.00000  16.08375             15.08431
1356.34021  1308.16495  194.00000  21.61225             11.77385
1361.11064  573.67234   235.00000  19.02803             16.14203
1364.99598  703.61446   249.00000  27.23361             11.85657
1364.34983  1287.41584  303.00000  20.87981             18.99718
1363.10526  1373.30341  323.00000  27.80826             14.96945
1362.50655  1633.22271  229.00000  19.63057             14.87162
1363.45270  548.68243   148.00000  16.64898             11.36495
1363.54795  1603.95890  73.00000   10.35486             8.92898
1371.37021  100.82128   235.00000  19.50005             16.20367
1368.69863  1332.89726  146.00000  15.36382             12.14645
1366.59211  1309.22368  76.00000   11.61649             8.63987
1374.58636  712.23182   220.00000  25.03238             11.58215
1372.11613  71.14839    310.00000  24.11031             16.48017
1373.31852  530.45926   270.00000  22.15115             15.78287
1371.71654  1446.76378  254.00000  19.80082             16.39909
1371.19231  1589.67949  156.00000  15.42701             13.57137
1378.25205  1139.50959  365.00000  27.36152             17.19814
1372.76289  1303.87629  97.00000   12.93844             9.67240
1376.33333  1622.20599  267.00000  23.84768             14.50429
1377.40000  225.26842   190.00000  16.62476             14.58151
1373.25000  1262.61538  52.00000   8.49624              7.75496
1381.22699  1160.98466  326.00000  27.27894             15.65936
1379.21687  1581.19277  166.00000  18.59753             11.58995
1381.68050  1538.54772  241.00000  22.40388             13.85573
1384.74648  1332.05634  284.00000  23.29584             15.67628
1390.82450  718.59934   302.00000  21.44235             18.24625
1386.84577  1464.39303  201.00000  21.55561             12.11249
1387.75510  1382.30612  245.00000  23.27117             13.42773
1390.27895  7.92105     190.00000  18.34443             13.32945
1400.31395  444.96124   258.00000  26.34159             12.67452
1399.76166  232.13990   193.00000  17.80463             13.86354
1401.36929  1525.00000  241.00000  19.34828             16.01533
1404.88498  1461.45367  313.00000  21.83537             18.83829
1406.16206  585.77866   253.00000  23.99600             13.61933
1410.43814  55.15979    194.00000  17.91829             13.81733
1413.11744  707.83630   281.00000  23.28639             15.61862
1419.10899  739.73297   367.00000  29.66656             15.95097
1413.11538  1530.37500  104.00000  12.77525             10.55495
1415.18908  130.33613   238.00000  21.37423             14.39851
1419.36162  664.80812   271.00000  25.00588             14.00826
1424.15504  484.07364   258.00000  21.43061             15.51124
1431.63356  722.98288   292.00000  22.35711             17.03601
1436.73455  1304.18909  275.00000  23.10188             15.51796
1436.25887  126.13121   282.00000  22.80182             16.22293
1437.45283  615.00377   265.00000  24.06439             14.07558
1440.41202  192.42489   233.00000  17.87489             16.73523
1440.00000  561.14607   267.00000  18.82817             18.29199
1442.79821  452.75785   223.00000  19.51756             14.61632
1446.86000  470.27429   350.00000  29.42054             15.47052
1447.76147  106.89908   218.00000  18.18871             15.38694
1454.90686  54.03922    408.00000  24.95264             21.12768
1453.63538  537.63538   277.00000  20.11520             17.70898
1451.58885  703.90592   287.00000  24.21984             15.20278
1455.14737  140.46667   285.00000  20.36891             17.85788
1459.19136  643.56790   324.00000  20.88338             19.88399
1463.21622  91.97297    222.00000  24.96089             11.35409
1468.90411  1314.80479  292.00000  23.67367             15.72558
1470.98645  582.35501   369.00000  23.93765             20.22781
1467.71685  515.60573   279.00000  30.84893             11.78725
1474.87059  1292.34902  255.00000  21.30021             15.29801
1475.37153  152.86458   288.00000  21.11377             17.48765
1479.37657  113.27615   239.00000  21.98204             13.94293
1483.02266  179.07649   353.00000  24.42133             18.51685
1484.29020  44.72157    255.00000  21.59899             15.28737
1482.59884  673.97674   172.00000  18.90937             11.69142
1483.99367  207.87342   158.00000  15.88238             12.75075
1490.65217  613.51014   345.00000  30.19694             14.81808
1502.04889  487.77778   225.00000  19.69267             14.75584
1501.28205  1301.29487  234.00000  19.13449             15.74455
1503.58757  138.26554   177.00000  17.04910             13.37121
1509.58788  92.95152    165.00000  16.11642             13.28852
1511.48718  711.58974   234.00000  20.90467             14.32677
1514.70645  544.23226   310.00000  27.45384             14.60424
1513.80992  653.95868   242.00000  23.27963             13.53778
1513.96875  124.08036   224.00000  17.33270             16.52145
1514.37000  1294.84500  200.00000  18.47206             13.80899
1516.99303  18.47735    287.00000  25.31569             14.67270
1516.22222  272.83951   243.00000  18.77786             16.52534
1525.06704  213.77374   358.00000  24.26859             19.30755
1520.40642  139.79144   187.00000  18.26750             13.14612
1528.46256  679.73568   227.00000  18.58151             15.60756
1528.04878  179.10732   205.00000  20.19073             12.95376
1530.02222  1272.65778  225.00000  19.75294             14.51962
1528.70930  114.58140   86.00000   10.99084             10.20141
1532.83645  577.71495   214.00000  17.86900             15.84559
1536.15812  423.72222   234.00000  20.52590             14.59282
1536.03922  193.67157   204.00000  17.68219             14.77748
1541.68033  303.96721   366.00000  23.85874             19.96046
1544.18033  578.93443   122.00000  16.26550             9.71858
1549.85813  1252.47059  289.00000  23.91732             15.46644
1549.46948  1276.27230  213.00000  19.95645             13.77327
1561.33511  167.19149   188.00000  18.72794             12.83563
1564.56667  187.89524   210.00000  20.55851             13.16257
1567.70792  110.45050   202.00000  17.33693             14.99066
1569.75849  253.21887   265.00000  23.75403             14.51275
1571.58824  526.10695   187.00000  19.25180             12.41491
1571.41288  614.85606   264.00000  26.29696             12.92936
1580.26106  555.38938   226.00000  19.78334             14.62954
1581.74611  433.40933   193.00000  19.90213             12.39532
1581.36797  650.47186   231.00000  21.44058             13.88734
1588.26799  217.74442   403.00000  29.72636             18.37749
1585.35106  136.72872   188.00000  18.47878             13.00009
1584.04455  538.39604   202.00000  16.56532             15.54423
1588.24031  414.63953   258.00000  21.31245             15.46844
1586.82824  178.19847   262.00000  22.68108             14.85428
1591.90311  274.32872   289.00000  22.38641             16.53602
1596.63212  696.60622   193.00000  19.26030             13.21409
1598.66292  155.00000   89.00000   11.42855             10.08156
1611.40506  139.86076   158.00000  15.56559             13.02159
1609.82667  175.98667   75.00000   11.32079             8.42829
1626.46835  436.12911   395.00000  29.06570             17.75718
1629.38587  133.32609   184.00000  18.19933             13.02526
1632.18182  719.13068   352.00000  24.84040             18.61495
1638.07692  206.42012   169.00000  17.65649             12.27803
1646.12598  892.00394   254.00000  22.37098             14.51830
1641.44521  648.08219   146.00000  15.96177             11.65827
1649.75758  629.47727   132.00000  17.01154             9.89451
1651.75543  685.56522   184.00000  17.78948             13.23978
1652.77246  666.28144   167.00000  17.04101             12.54307
1654.02994  647.20359   167.00000  15.88491             13.44308
1656.56808  171.79343   213.00000  17.95844             15.17551
1657.50000  214.98969   194.00000  20.28888             12.37011
1667.31496  890.28740   254.00000  22.57933             14.96523
1665.67763  622.06579   152.00000  15.78130             12.41636
1668.17373  717.83475   236.00000  20.77727             14.55540
1668.01333  468.16000   225.00000  17.56929             16.34384
1668.01653  227.20661   121.00000  15.10883             10.20425
1672.01770  638.02212   226.00000  18.23407             16.50213
1680.51579  16.06842    190.00000  18.17101             14.38891
1687.14786  902.34241   257.00000  21.54596             15.26641
1685.12849  637.97765   179.00000  19.74167             11.91332
1685.32258  142.05806   155.00000  15.32942             12.97888
1687.75986  479.39427   279.00000  20.46219             17.66667
1689.10031  269.46082   319.00000  21.85950             18.67479
1693.38057  699.64777   247.00000  19.36857             16.29552
1695.45283  220.66038   265.00000  18.72055             18.25375
1699.18530  410.52716   313.00000  23.36654             17.84025
1701.20968  1379.87097  62.00000   9.22017              8.55830
1705.29915  264.05128   117.00000  13.04895             11.54752
1712.73734  469.82595   316.00000  27.17153             14.99597
1704.81250  1333.00000  48.00000   9.91195              6.12570
1704.00000  1367.74286  35.00000   7.09638              6.28927
1710.21849  1235.24370  238.00000  18.36106             16.73464
1712.70149  100.16418   268.00000  24.06427             14.35821
1718.93987  612.59494   316.00000  28.16436             14.67227
1717.88636  343.29545   176.00000  16.49663             13.62096
1714.90000  1365.57500  40.00000   7.68738              6.62226
1720.25389  503.93782   193.00000  19.00394             13.04737
1721.58564  525.72928   181.00000  16.62579             13.99192
1718.94937  55.91139    79.00000   11.00367             9.20474
1729.85124  287.51240   242.00000  21.07341             14.78947
1731.88148  382.38148   270.00000  20.05643             17.40119
1738.02881  907.57202   243.00000  24.13480             12.98747
1734.28906  700.52344   128.00000  14.22810             11.68719
1744.78090  235.29213   178.00000  16.63715             13.67988
1744.97521  1900.42975  121.00000  13.76105             11.43284
1749.30667  918.16667   150.00000  17.64532             10.84067
1756.12219  548.75563   311.00000  25.73151             15.89517
1757.02907  691.78488   172.00000  19.86414             11.03110
1757.38365  260.34591   159.00000  16.63828             12.20599
1762.55752  216.76991   226.00000  20.08786             14.50551
1764.34899  427.04362   298.00000  21.61557             18.04979
1762.48969  1894.22680  194.00000  17.59840             14.03778
1761.16471  50.17647    85.00000   12.26150             9.25805
1762.91346  366.76442   208.00000  18.93835             14.13481
1766.82353  1209.35294  187.00000  17.20192             13.92871
1769.89085  912.97535   284.00000  22.90353             15.91402
1773.02344  708.74219   256.00000  22.05332             14.99012
1772.53333  244.48667   150.00000  15.49631             12.68925
1775.50327  356.55882   306.00000  22.76264             17.21915
1773.07194  556.16547   139.00000  14.72983             12.02188
1781.33333  568.11111   171.00000  16.70011             13.07187
1785.05952  1197.76984  252.00000  21.27792             15.16878
1788.59821  838.96726   336.00000  27.14542             15.87609
1786.07362  55.74233    163.00000  17.39078             12.17135
1788.63137  464.09804   255.00000  20.83822             15.68981
1789.79565  553.77826   230.00000  20.68990             14.17788
1786.97541  281.32787   122.00000  14.18356             11.01929
1788.99497  162.75879   199.00000  21.10960             12.06041
1807.16045  679.60821   268.00000  23.39040             14.81802
1811.06818  917.44697   132.00000  14.26880             11.85430
1817.01081  207.45405   185.00000  18.08457             13.05391
1817.73438  90.59375    128.00000  15.26572             10.69758
1821.27961  432.53618   304.00000  22.44755             17.60813
1825.15678  133.59322   236.00000  23.27658             12.92117
1829.38983  922.43644   236.00000  21.77020             14.07858
1834.94561  668.92887   239.00000  24.34775             12.55066
1831.51256  245.27638   199.00000  20.04584             12.67986
1837.93656  1157.30816  331.00000  25.84443             16.52074
1844.03084  491.31718   227.00000  20.64809             14.08144
1842.15504  580.60465   258.00000  18.23907             18.14202
1848.13534  828.20301   133.00000  15.87836             10.78743
1849.78488  529.37791   172.00000  16.51105             13.40207
1850.52586  568.37069   116.00000  12.24427             12.07475
1852.64481  920.53552   183.00000  17.46147             13.46634
1858.62738  598.28517   263.00000  21.09122             16.28836
1862.16879  515.00318   314.00000  25.75490             16.02783
1868.14815  86.55967    243.00000  18.45001             16.92916
1869.25243  253.54854   206.00000  19.96518             13.23662
1874.09829  1144.21795  234.00000  20.73885             14.43740
1876.03376  928.71730   237.00000  22.18104             13.68990
1875.33803  278.94718   284.00000  21.89279             16.57469
1877.34146  791.74146   205.00000  18.11961             14.57239
1877.01887  716.59748   159.00000  16.60879             12.25270
1888.76015  652.07380   271.00000  25.04788             14.54127
1889.26946  825.86826   167.00000  17.90078             11.88933
1891.44635  697.41202   233.00000  25.79053             11.62432
1892.19403  1681.13930  201.00000  17.25138             15.13273
1893.31154  555.65000   260.00000  20.62224             16.19909
1897.68621  575.10000   290.00000  23.73707             15.76035
1897.27757  1119.74525  263.00000  22.54738             14.96278
1900.93033  674.19262   244.00000  25.96165             12.05221
1914.07212  800.62019   208.00000  19.14341             14.11165
1912.86131  939.35766   137.00000  14.37924             12.15681
1929.18699  933.96748   123.00000  17.05859             9.23438
1931.08589  823.89571   163.00000  17.79669             11.82040
1943.21344  631.03953   253.00000  25.44204             12.78014
1960.96970  882.64646   198.00000  21.83002             11.58113
1963.59916  922.11392   237.00000  22.18121             13.66262
1969.08392  364.76923   143.00000  15.60491             11.76924
1974.08219  574.68493   219.00000  23.51525             11.98796
1975.48947  538.79474   190.00000  25.65766             9.98094
1981.50495  871.31188   202.00000  18.10926             14.40444
1985.14876  487.27273   363.00000  24.31701             19.33832
1985.95708  311.57082   233.00000  27.81158             10.98978
1991.63636  811.26738   187.00000  18.60497             12.89806
1997.19608  260.58333   204.00000  17.75492             14.76739
2001.13717  925.27434   226.00000  20.06504             14.46370
2000.77436  871.70769   195.00000  19.42562             12.80193
2006.43443  226.66393   122.00000  14.83473             11.06268
2023.82456  929.72807   114.00000  12.75002             11.82801
2026.69892  907.93011   186.00000  17.22428             13.82649
2034.23345  888.89199   287.00000  21.97878             17.11776
2033.04372  859.12568   183.00000  18.39694             12.69316
2036.44706  927.05882   170.00000  18.46552             11.89986
2038.36916  754.85514   214.00000  18.25761             15.02625