# Filename: Nuclei_416_bidi_60x_018.npz
# Voxel size (nm): (108, 108)
# Area quantity: voxels
# Num nuclei detected: 1004
Y           X           AREA       MAJOR_AXIS_LENGTH    MINOR_AXIS_LENGTH
11.82353    417.23529   153.00000  16.65804             11.75909
20.95722    1175.97326  187.00000  19.47604             12.33149
22.44853    611.62500   136.00000  14.90370             11.67951
35.58940    254.06623   151.00000  19.05284             10.66760
46.59514    612.74899   247.00000  22.14955             14.25794
68.10734    461.89266   177.00000  17.59132             12.87077
70.23246    1150.65351  228.00000  20.59681             14.16456
85.18841    646.46860   207.00000  19.63541             13.48079
96.43273    502.01091   275.00000  20.11520             17.57691
106.63314   1111.09467  169.00000  17.73356             12.23848
112.09967   526.83056   301.00000  25.52383             15.12854
112.25150   952.26347   167.00000  21.07622             10.16950
109.38298   1661.90426  94.00000   13.40857             9.46291
116.65487   545.41593   113.00000  12.64951             11.71291
120.04094   257.12865   171.00000  19.23046             11.74995
121.37864   1123.55340  103.00000  12.02513             11.01316
125.89030   206.38397   237.00000  22.93223             13.25251
132.31222   958.86425   221.00000  23.28886             12.13464
136.31532   1172.66216  222.00000  20.34773             14.17248
136.21854   1237.58940  151.00000  17.26159             11.28703
138.69767   1108.48256  172.00000  17.78712             12.50162
140.80753   570.92469   239.00000  19.08953             16.14664
143.56017   1640.58506  241.00000  19.84859             15.60884
149.15924   540.28662   314.00000  22.49745             17.98136
149.71875   1091.09821  224.00000  18.20865             15.71022
155.00585   472.78947   171.00000  18.03822             12.20466
159.12414   461.02069   145.00000  15.31347             12.23010
160.34361   1195.13216  227.00000  19.18520             15.10542
165.76074   582.82515   326.00000  27.93005             14.92737
171.32816   1133.02882  451.00000  37.32575             16.46864
183.58687   932.02317   259.00000  23.27142             14.23502
192.11656   482.68712   163.00000  15.20505             13.68011
201.48996   1157.62651  249.00000  25.70482             12.64341
204.74866   1053.95722  187.00000  17.81454             13.37162
205.81818   943.12987   154.00000  14.90227             13.21477
209.98936   1595.97872  188.00000  20.60815             11.63165
213.25610   519.74390   164.00000  17.19407             12.24234
225.29470   982.22185   302.00000  22.86358             17.05795
220.84247   941.76712   146.00000  16.00684             11.64526
230.75000   567.99074   216.00000  17.63066             15.85616
231.10000   1047.42353  170.00000  18.07142             12.05061
232.03261   441.92391   92.00000   13.49475             9.00480
230.83846   597.49231   130.00000  14.38873             12.38329
234.97510   204.51452   241.00000  22.43931             13.70644
238.73196   939.67354   291.00000  21.40840             17.58067
238.42857   540.65966   238.00000  21.08370             14.49532
244.72951   487.41393   244.00000  24.65776             13.09051
242.50581   589.79651   172.00000  16.70921             13.15912
244.93238   1012.44840  281.00000  24.83663             14.96977
251.92933   612.02120   283.00000  20.92447             17.26170
256.75490   990.00980   204.00000  17.99324             14.51930
260.15405   1150.56397  383.00000  26.89062             18.28439
265.27941   1057.14118  340.00000  23.27699             18.64598
282.91176   616.75000   340.00000  24.41330             17.87526
279.54950   1195.13366  202.00000  18.66861             13.85460
284.92308   113.11538   234.00000  22.39686             13.49724
280.55618   1014.76404  178.00000  15.95858             14.23638
287.27322   482.72678   183.00000  17.52681             13.37219
294.79221   968.43506   154.00000  15.40352             12.73707
301.37248   472.63423   298.00000  24.99162             15.48840
319.99184   460.21633   245.00000  22.98615             13.76410
321.01786   602.38571   280.00000  22.45621             16.02557
330.52778   1196.97619  252.00000  21.47119             15.02532
332.91057   256.60569   246.00000  19.94488             15.76378
338.08876   390.84024   169.00000  16.78242             12.86960
344.85567   412.37457   291.00000  24.70371             15.87712
344.06996   456.52675   243.00000  19.86330             15.70541
354.79263   245.16129   217.00000  19.44194             14.35443
361.35535   850.02516   318.00000  26.46563             15.43924
362.03670   380.31804   327.00000  22.05507             20.69041
368.73962   1189.01509  265.00000  27.40374             13.27131
365.54231   324.95769   260.00000  19.56732             17.25335
375.39024   298.73171   205.00000  18.31832             14.28806
377.87698   344.37302   252.00000  22.42336             14.47694
376.86705   1613.81503  173.00000  20.26804             11.36395
383.36788   394.19689   193.00000  16.43103             14.98540
386.82334   282.81073   317.00000  21.18990             19.39749
394.85019   370.41199   267.00000  21.33364             15.99963
393.33511   166.13830   188.00000  18.91216             12.72850
396.16107   354.79195   149.00000  15.28013             12.51418
406.54506   282.53648   233.00000  18.32977             16.31661
419.40000   265.89744   195.00000  15.92302             15.70157
419.20472   156.48031   127.00000  13.06272             12.55898
430.89041   312.50228   219.00000  20.67583             13.60325
430.07895   173.02632   152.00000  15.45231             12.56811
435.07090   862.57836   268.00000  24.73676             13.86408
436.67797   1198.76695  236.00000  19.46034             15.63094
437.68889   159.44444   180.00000  18.78095             12.54636
440.05376   275.20430   93.00000   12.35438             9.75116
446.29048   359.87143   210.00000  19.69695             13.78116
443.87578   52.85714    161.00000  15.03473             13.85882
449.25148   482.05917   338.00000  24.81355             17.60247
448.11735   241.89796   196.00000  17.18324             14.65601
447.59603   426.27152   151.00000  14.17245             13.56514
454.82063   1190.67713  223.00000  23.59471             12.15867
454.64167   263.04583   240.00000  20.95298             14.83750
453.91322   322.89669   242.00000  19.37993             16.10897
458.13693   129.15768   241.00000  21.38871             14.37782
458.25197   146.11024   127.00000  16.55273             9.80808
465.10490   408.39161   286.00000  27.36849             13.60790
463.01070   225.05348   187.00000  18.26221             13.11916
464.53556   1597.83264  239.00000  22.02279             13.99107
468.58974   329.03846   78.00000   11.92025             10.43717
471.71134   272.29381   194.00000  18.75640             13.37941
472.16230   312.11518   191.00000  20.54844             11.92987
474.28311   209.87671   219.00000  19.46531             14.38911
474.12838   386.89189   148.00000  15.10501             12.77811
478.00673   1498.37710  297.00000  22.85948             17.22548
476.46012   246.71779   163.00000  16.55775             12.65110
477.85356   1437.11297  239.00000  19.35021             15.80375
480.75281   172.19663   178.00000  16.44378             13.80788
483.32508   449.58204   323.00000  29.37741             14.68426
484.67518   227.71168   274.00000  21.16596             16.57428
480.57042   303.45775   142.00000  16.29993             11.16364
486.00334   152.73913   299.00000  22.10119             17.32707
485.72043   838.60215   93.00000   12.55893             9.49679
492.33893   1204.48658  298.00000  23.96339             16.19001
490.07471   406.49425   174.00000  15.75368             14.10171
491.24294   384.38418   177.00000  17.83550             12.73953
493.48718   201.38034   234.00000  20.26716             14.88022
493.81250   278.42308   208.00000  16.81745             15.89318
503.28530   415.00000   347.00000  26.53264             17.32972
502.76577   363.49099   222.00000  19.36321             14.82412
502.04878   1581.61585  164.00000  15.78691             13.27326
504.24571   176.09143   175.00000  17.88938             12.56441
503.27320   457.82990   194.00000  17.76130             13.99531
505.51271   486.99153   236.00000  24.86153             12.45475
505.40212   1503.40212  189.00000  16.69581             14.41381
504.50000   263.15625   96.00000   13.66920             9.06985
509.97348   548.51136   264.00000  24.34603             13.96261
521.12264   854.90881   318.00000  36.83191             11.19828
513.54962   1602.40840  262.00000  22.53223             14.99220
515.35802   242.22222   162.00000  15.78276             13.10600
518.49632   373.69485   272.00000  22.83130             15.29727
520.46445   1327.68246  211.00000  17.60003             15.60467
517.52113   278.09859   71.00000   10.44699             8.77540
521.30282   334.61268   142.00000  13.97935             13.04080
522.92857   1534.66964  224.00000  19.70534             14.60481
522.56140   9.74269     171.00000  17.68660             12.56586
522.72018   1433.61927  218.00000  16.98847             16.44127
524.27706   311.09091   231.00000  20.52537             14.38367
526.86447   394.71795   273.00000  20.66486             17.32086
526.89130   250.66667   138.00000  14.51987             12.18055
529.86982   30.64497    169.00000  17.42551             12.50816
531.98165   1628.51376  218.00000  17.51522             15.91369
531.16216   1485.64324  185.00000  21.31075             11.41455
533.27778   1589.01235  162.00000  15.92360             13.06081
534.43062   225.10526   209.00000  18.17044             14.76618
535.09877   160.93827   162.00000  15.44954             13.37432
537.69196   1221.26339  224.00000  17.34419             16.86440
540.51145   1378.44275  262.00000  23.41022             14.48975
540.62500   502.81944   360.00000  22.75439             20.41785
540.00000   563.62698   252.00000  20.49001             15.70451
539.80392   338.65686   102.00000  13.54722             9.62907
542.46637   597.23318   223.00000  18.20885             15.74283
547.03460   842.84775   289.00000  27.13646             13.81230
546.26415   179.90566   159.00000  15.97915             12.69325
547.08982   243.80838   167.00000  16.80052             12.78269
550.57550   196.78632   351.00000  25.09440             18.23937
552.45758   444.33030   330.00000  28.53684             15.18357
550.92409   1440.22442  303.00000  21.02440             18.53676
548.71915   1479.04255  235.00000  20.07884             14.99306
550.32461   1577.10471  191.00000  21.65874             11.25389
553.78210   1409.40078  257.00000  20.51858             16.09121
554.82500   369.81000   200.00000  20.15217             12.65948
552.80769   119.50962   104.00000  12.36289             10.74657
554.96316   1358.52632  190.00000  19.27925             12.70325
559.50655   1371.96507  229.00000  20.85244             14.75871
562.57483   142.98639   294.00000  32.95078             11.55423
558.65833   80.17500    120.00000  14.24885             10.87869
560.56349   1512.40476  126.00000  13.35835             12.07433
561.22283   400.13587   184.00000  18.41244             12.74076
567.18895   544.49709   344.00000  23.79185             18.65799
568.11333   354.98333   300.00000  24.12182             16.05847
563.82703   320.31892   185.00000  17.36430             13.59280
565.86932   1596.75568  176.00000  16.64435             13.62187
564.41667   1685.22222  72.00000   11.19516             8.56287
565.65698   1813.58721  172.00000  16.23580             13.55348
568.47748   294.38739   111.00000  14.03922             10.10686
571.84892   182.94604   278.00000  19.33686             18.31945
570.96992   416.21053   133.00000  14.36587             11.81545
574.86413   99.89130    184.00000  18.41687             12.74105
579.18824   271.13725   255.00000  20.62035             16.00108
583.10766   1242.96172  418.00000  30.91109             17.40837
579.53659   759.71707   205.00000  18.78327             14.05820
580.92049   1390.88685  327.00000  22.56071             18.54704
580.36923   628.89231   195.00000  17.73749             14.02047
584.32061   1512.04198  262.00000  23.72518             14.19253
581.12291   324.73184   179.00000  16.82103             13.66464
581.08252   480.00485   206.00000  17.56120             15.01843
580.67059   222.80000   85.00000   11.45671             9.63403
584.65116   1444.91860  258.00000  24.36858             13.61810
582.74595   1536.62703  185.00000  22.23970             11.07209
584.26804   245.10825   194.00000  21.79469             11.59208
584.68908   114.85714   119.00000  13.59491             11.19097
584.04065   291.21138   123.00000  14.72885             10.66005
590.77178   1484.15353  241.00000  21.55724             14.37379
591.06061   207.05628   231.00000  23.39422             12.72534
594.38565   329.78475   223.00000  18.38579             15.49219
594.35979   431.56614   189.00000  18.37005             13.23048
591.12360   1541.94382  89.00000   12.19971             9.29396
592.50649   1655.81169  154.00000  15.57282             12.61559
594.88971   134.85294   136.00000  14.74068             11.77964
597.50000   857.13830   188.00000  18.27526             13.08915
603.91336   381.29964   277.00000  28.11253             12.66219
604.07774   639.29329   283.00000  28.35609             12.99524
602.92917   776.83750   240.00000  28.05047             11.08158
601.78788   1500.67532  231.00000  23.58684             12.58079
605.62937   353.11888   286.00000  25.02305             14.64964
602.02888   490.06498   277.00000  21.43824             16.56721
599.98611   252.80556   72.00000   11.43769             8.04944
603.74419   239.06395   172.00000  16.35921             13.48930
609.20949   168.92095   253.00000  27.07250             12.21939
605.29091   310.15152   165.00000  15.29420             13.76170
609.35321   1746.16514  218.00000  18.80273             14.76628
617.28794   1417.66148  257.00000  25.65472             13.14740
618.37349   1587.30522  249.00000  25.87208             12.39791
614.42714   153.81910   199.00000  19.35395             13.14595
611.65693   196.80292   137.00000  14.92038             12.12292
618.90203   449.89865   296.00000  25.52887             14.93090
613.35766   1614.59124  137.00000  14.53210             12.01624
619.75926   421.59259   216.00000  25.71822             11.08340
617.09231   1704.29231  195.00000  18.86443             13.18134
614.34091   3.93182     88.00000   12.01528             9.49014
616.32727   1543.62424  165.00000  15.99841             13.14370
620.03883   266.15534   206.00000  19.93263             13.27047
621.36041   79.26396    197.00000  16.37194             15.35089
620.95276   432.40945   127.00000  15.38234             10.69716
626.08846   478.05000   260.00000  19.80823             16.76877
623.14013   104.55414   157.00000  15.55100             13.34964
626.59583   1671.57917  240.00000  21.03228             14.80753
629.99479   215.54167   192.00000  18.82842             13.05931
632.30859   1619.33594  256.00000  18.63498             17.52057
635.98377   802.12013   308.00000  24.45896             16.17973
634.36872   1547.55866  179.00000  16.83077             13.57178
639.53746   28.85342    307.00000  24.55593             16.15041
638.35025   413.92893   197.00000  16.51095             15.50847
646.14196   685.28707   317.00000  35.60002             11.43771
639.14170   270.75709   247.00000  21.42395             14.87955
642.05310   385.13274   113.00000  13.61840             10.70190
644.27586   1412.97126  174.00000  18.80711             11.82651
644.56098   1503.98537  205.00000  20.46755             12.82687
646.00000   133.19394   165.00000  16.73510             12.64006
651.45732   370.11585   328.00000  28.35556             15.60211
646.36154   1702.90769  130.00000  14.97722             11.17317
648.20330   475.66484   182.00000  17.75222             13.11086
649.14146   1657.53171  205.00000  17.17539             15.37392
650.55833   81.32083    240.00000  17.57311             17.44184
652.59487   1449.70769  195.00000  20.09566             12.42525
651.77273   440.44805   154.00000  14.74026             13.41392
652.39918   1396.99588  243.00000  19.28298             16.19238
651.70861   1868.20530  151.00000  14.44044             13.53082
654.10502   1564.20091  219.00000  18.05957             15.48861
653.08276   1641.96552  145.00000  14.60075             12.70079
653.05102   425.95918   98.00000   13.07504             9.67616
657.67636   802.66909   275.00000  20.44349             17.17131
662.93968   1226.29206  315.00000  30.88776             13.35627
658.36214   385.12757   243.00000  22.72706             13.81963
657.48205   589.39487   195.00000  17.35511             14.36351
660.28814   149.80932   236.00000  19.55944             15.43471
661.47847   1439.58852  209.00000  17.78533             14.94836
660.24627   1627.28358  134.00000  18.52746             9.36960
663.07759   1524.33190  232.00000  19.24749             15.37641
662.96855   50.80503    159.00000  16.93827             11.93980
662.17822   1492.55446  101.00000  12.80430             10.12248
664.94805   459.72078   154.00000  15.44186             12.72888
671.19081   38.69965    283.00000  28.51724             12.83350
667.92126   847.83465   127.00000  14.69511             11.05842
671.08805   184.88050   159.00000  16.51974             12.39815
678.30508   446.04802   354.00000  22.80893             20.26353
678.76744   1543.94574  258.00000  21.12705             16.22297
677.65909   517.82273   220.00000  17.92600             15.69035
678.61111   1389.51852  162.00000  15.80201             13.22436
676.95200   1495.14400  125.00000  18.23787             8.79656
676.69173   1665.00000  133.00000  15.20035             11.24840
683.66667   501.37619   210.00000  23.00181             12.04350
687.92857   853.78827   392.00000  31.42658             16.11754
682.79779   334.76838   272.00000  24.04486             14.74019
683.64550   367.17989   189.00000  16.15003             15.01789
682.72072   251.18018   222.00000  25.77076             11.02543
683.88596   1677.44737  114.00000  12.37439             11.76783
692.53605   697.51724   319.00000  25.45320             17.57481
694.31271   1692.14433  291.00000  25.71861             14.54636
694.34884   1393.44961  129.00000  16.49755             9.95408
692.50000   1482.95833  120.00000  15.35431             10.11027
695.20397   319.56657   353.00000  25.27104             17.83313
697.19512   1369.96098  205.00000  20.20339             12.99641
695.64881   1667.51786  168.00000  16.17367             13.30791
698.38034   1615.02991  234.00000  18.29250             16.44298
699.50890   382.16726   281.00000  23.66175             15.63736
703.34835   1254.51652  333.00000  33.16003             13.49734
699.49378   1596.51037  241.00000  21.25787             14.49284
696.84314   413.83007   153.00000  20.76253             9.57989
699.94332   1418.13360  247.00000  18.26400             17.28869
699.76000   81.30857    175.00000  17.45466             12.81065
703.71290   805.59032   310.00000  22.01405             18.39346
701.70936   252.29557   203.00000  19.12704             13.64570
707.82624   360.73050   282.00000  26.91711             13.47474
705.53788   1460.74242  132.00000  16.74045             10.15069
708.90775   1575.35424  271.00000  22.66425             15.32609
712.44444   187.44444   135.00000  13.52166             12.79812
714.65625   240.31771   192.00000  16.14939             15.25150
710.66667   836.63889   72.00000   11.12232             8.24532
716.96053   1395.84211  228.00000  18.09436             16.47843
714.57919   1556.15385  221.00000  18.84821             15.30072
715.90196   88.38431    255.00000  24.75378             13.30000
721.17785   137.68121   298.00000  28.56636             13.56585
720.28571   259.67281   217.00000  22.36029             12.45836
722.18349   170.90826   218.00000  22.63806             12.80557
728.71762   1212.77461  386.00000  35.28949             14.03414
723.44737   291.22556   266.00000  24.80643             14.02873
723.73592   1412.41197  284.00000  21.41086             17.04832
724.13793   431.64828   290.00000  23.16338             16.47197
722.55801   71.40331    181.00000  17.98040             12.85337
721.66216   210.22297   148.00000  17.00366             11.37256
718.11538   1493.69231  26.00000   6.16606              5.34412
728.86154   187.86923   260.00000  24.22611             13.70318
726.88587   563.93478   184.00000  15.96922             14.71212
731.75682   364.85856   403.00000  25.49628             20.26692
732.37079   1400.00562  178.00000  16.51841             13.82711
736.32143   1335.05952  336.00000  32.86986             13.60518
737.02273   1364.39205  176.00000  17.89955             13.35367
740.92000   88.36667    300.00000  22.27795             17.22942
736.40336   1706.78992  119.00000  14.03568             10.87251
741.92000   1380.28889  225.00000  19.28282             14.97604
742.23693   1677.14286  287.00000  21.36243             17.14247
747.86667   553.89655   435.00000  24.84685             22.77645
745.26645   238.92434   304.00000  21.61557             18.08351
743.73370   1479.45109  184.00000  18.29577             12.91462
749.02094   1623.19895  382.00000  26.70216             18.79702
748.26172   1720.10938  256.00000  22.68429             14.49391
750.36364   1457.88258  264.00000  24.01698             14.31464
755.09206   197.27619   315.00000  28.45749             14.33175
745.09375   1341.18750  32.00000   6.69305              6.16441
753.65693   1355.88321  274.00000  23.97175             14.68148
751.38318   1418.90187  214.00000  21.51259             13.31624
755.20067   1542.30435  299.00000  25.65104             15.06879
756.38397   1276.46414  237.00000  22.69993             13.44171
757.74257   395.57178   404.00000  24.01281             21.62380
755.19500   1658.68500  200.00000  17.10001             14.97043
754.91304   1699.62733  161.00000  15.41020             13.31822
758.59044   779.76109   293.00000  23.84122             15.68850
753.08571   864.31429   35.00000   7.26624              6.07720
758.95146   1518.40291  206.00000  20.94870             12.57183
759.62431   1483.22652  181.00000  16.78050             13.85237
765.44373   130.47267   311.00000  22.17941             18.02958
766.09286   466.72857   280.00000  22.33505             16.68704
764.57627   357.65763   295.00000  21.31919             17.66040
767.07386   439.27841   352.00000  24.87531             18.66403
767.35629   514.92216   334.00000  23.96215             17.94532
763.37059   1496.72353  170.00000  17.70185             12.29541
766.69863   1424.17808  146.00000  15.54191             12.03628
768.45122   1323.97967  246.00000  18.95129             16.60612
771.26667   320.16410   195.00000  24.80191             10.43043
773.73239   852.40563   355.00000  29.19816             15.68650
766.71212   1371.10606  66.00000   11.69775             7.19148
770.55072   1441.77778  207.00000  17.82132             14.97709
770.66832   1732.74752  202.00000  18.86876             13.67232
766.75000   1873.53846  52.00000   11.07022             6.28517
772.19305   186.49807   259.00000  25.93680             12.88496
772.28634   303.04405   227.00000  20.73250             14.06752
770.82632   1552.32105  190.00000  22.45934             10.89152
771.01198   374.17365   167.00000  16.23967             13.28199
772.76836   1285.53672  177.00000  18.51069             12.22388
778.72391   835.59596   297.00000  27.44531             14.02791
770.62069   1471.82759  87.00000   11.96359             9.32322
776.78116   1231.72576  361.00000  26.48222             17.75961
780.89732   1715.18304  224.00000  20.28503             14.14056
781.52683   1273.46341  205.00000  18.13852             14.47539
783.58612   1452.66067  389.00000  26.84471             19.35202
782.90323   1884.61751  217.00000  18.86657             14.95845
787.33481   227.07317   451.00000  34.73338             16.72145
780.42105   785.36842   38.00000   8.27306              5.78753
787.71186   1745.33898  236.00000  20.44664             14.93677
787.80068   486.03041   296.00000  21.97093             17.44739
789.61290   203.06452   217.00000  17.47537             15.95558
790.62162   440.18581   296.00000  21.93330             17.73470
789.90805   1311.42146  261.00000  19.07385             17.47379
790.50885   1650.06195  226.00000  21.48251             13.56454
794.30899   753.22753   356.00000  26.69576             17.23312
793.24022   1420.53631  179.00000  21.08814             11.40810
791.89354   1516.25095  263.00000  22.52935             14.98541
791.34161   1540.42857  161.00000  14.84191             13.93169
792.50000   1805.77419  186.00000  18.96526             12.53202
794.39247   52.48387    186.00000  17.57485             13.65670
799.03802   174.28517   263.00000  23.82438             14.65712
799.19066   277.00389   257.00000  21.40285             15.67910
800.92213   1249.35246  244.00000  20.03922             15.75064
795.07692   838.56410   39.00000   7.63673              6.47536
801.66816   247.65471   223.00000  18.20736             15.70916
803.46296   1427.89815  216.00000  20.64186             13.90257
803.02326   1478.08430  344.00000  23.78787             18.54513
805.29167   1201.09936  312.00000  28.27906             14.26152
805.14027   1384.61538  221.00000  22.97799             12.37755
803.89683   1364.21429  126.00000  15.01332             10.70143
806.10943   395.57358   265.00000  21.29096             15.98259
805.60440   1585.62637  182.00000  15.96720             14.75376
807.10300   152.56223   233.00000  18.10494             16.50169
806.59314   1534.28922  204.00000  19.06305             13.78211
807.25824   1600.65385  182.00000  17.91549             13.06309
808.48148   1278.84444  135.00000  14.10636             12.34787
808.95484   1567.30323  155.00000  14.86642             13.51851
813.17227   1450.36134  238.00000  23.29410             13.27020
811.86638   293.16810   232.00000  17.77057             16.74618
812.51327   1667.23451  226.00000  24.67784             12.28270
817.73282   1890.09924  262.00000  23.89637             14.04464
816.78488   173.65116   172.00000  16.18444             13.56568
820.52362   1223.86220  254.00000  20.63073             15.93433
818.92908   1432.24823  141.00000  13.82373             13.06209
819.38150   1584.79769  173.00000  16.86677             13.39040
819.50667   1688.71333  150.00000  14.83698             13.00007
825.71246   306.62939   313.00000  26.87837             15.15714
820.02128   399.12057   141.00000  13.89339             12.93670
828.21918   737.86301   365.00000  28.77220             16.42787
822.61582   1774.71751  177.00000  15.98963             14.14508
825.92553   1243.68617  188.00000  19.77862             12.10912
825.40928   415.04641   237.00000  18.38803             16.80946
825.93299   1411.36082  194.00000  16.99055             14.62279
831.13740   347.96565   262.00000  25.89858             13.66207
821.41379   837.93103   29.00000   6.72846              5.50063
828.93151   428.94521   146.00000  16.30907             11.52368
826.20588   1700.11765  102.00000  12.00199             10.88233
831.61053   1372.14386  285.00000  29.58608             12.65565
834.13063   217.19369   222.00000  17.57380             16.26082
836.88136   1505.35593  295.00000  22.84747             16.58910
832.20455   167.80682   88.00000   10.80927             10.40465
837.75281   1706.53371  178.00000  18.25995             12.67062
840.04583   357.92917   240.00000  19.84030             15.91588
839.21250   1526.70625  160.00000  16.66062             12.24829
840.60090   180.51570   223.00000  19.49115             14.83240
841.38889   1630.11806  144.00000  17.29949             10.98364
843.00922   449.02304   217.00000  19.06365             14.56198
845.58333   1194.67949  312.00000  25.94057             16.40509
845.39552   1293.71269  268.00000  22.46398             15.49654
847.97682   727.02649   302.00000  22.47632             17.29412
845.78059   1390.60338  237.00000  18.52022             16.41784
844.20968   1592.58065  186.00000  16.85995             14.22890
845.17518   1933.00730  137.00000  14.87174             11.82368
853.30226   393.11299   354.00000  26.60185             17.48374
850.53138   695.41004   239.00000  18.18409             16.85196
852.39865   848.02027   296.00000  21.45551             17.67051
850.25907   1617.16062  193.00000  17.19061             14.39745
849.37387   1573.93243  222.00000  22.37778             12.81846
853.43290   202.96104   231.00000  19.07117             15.43663
852.90114   280.59316   263.00000  20.13587             17.12803
854.07930   1350.43612  227.00000  18.65340             16.09633
857.07224   1548.07224  263.00000  21.27182             15.92271
853.74118   1661.27059  170.00000  17.92269             12.16812
860.39056   313.90987   233.00000  19.36311             15.68937
861.30342   1321.88889  234.00000  18.09657             16.61857
863.52069   1770.32414  290.00000  22.55763             16.42380
866.44487   1186.90875  263.00000  23.35685             14.51136
871.00000   1385.07851  242.00000  29.57243             11.04241
865.40824   1423.27341  267.00000  24.88649             14.48718
861.65217   1375.69565  46.00000   9.14504              6.50706
865.48347   438.40496   242.00000  22.76802             13.59195
868.34783   1571.35452  299.00000  23.88457             16.35973
869.67568   273.62934   259.00000  20.98458             15.79593
869.28095   355.17619   210.00000  18.10713             14.83274
868.12143   1658.77143  140.00000  15.26995             11.82430
874.24679   1368.06427  389.00000  29.20972             19.52662
873.68519   1537.21481  270.00000  25.95220             13.52351
874.01553   111.84783   322.00000  25.29319             16.32220
877.02349   1608.25168  298.00000  25.70865             14.84606
871.59429   210.67429   175.00000  17.59957             12.71686
873.36232   1331.61836  207.00000  17.89373             14.84288
870.61224   1555.69388  49.00000   8.47670              7.36204
876.77005   686.09091   187.00000  16.85096             14.72411
879.81818   1261.83712  264.00000  21.16833             16.03716
883.60714   1883.67063  252.00000  23.24427             13.86124
882.07027   441.49730   185.00000  18.20541             13.09952
881.53333   86.50476    210.00000  19.39696             13.85251
887.36555   1406.18067  238.00000  21.84580             14.12430
885.27228   1550.09901  202.00000  17.47094             14.80291
891.45631   205.26537   309.00000  28.22685             14.44115
885.86765   1629.83333  204.00000  18.75638             13.94186
892.55508   331.30932   236.00000  22.56079             13.65212
898.57622   840.95732   328.00000  33.11665             13.07555
896.98814   1420.28854  253.00000  28.79423             11.45435
897.30542   1324.26108  203.00000  20.89184             12.43712
895.20765   431.22951   183.00000  17.42026             13.47763
898.62887   1373.35567  194.00000  19.65413             12.65574
894.55319   830.23404   47.00000   7.89544              7.58329
903.74096   115.50000   332.00000  22.74986             19.06417
903.13587   700.33696   184.00000  17.84274             13.38244
905.67982   449.53070   228.00000  18.30633             15.88761
905.06220   669.64115   209.00000  18.00845             15.25052
902.32258   1182.58065  62.00000   9.40554              8.40655
906.71429   1637.75676  259.00000  20.56355             16.10294
909.39888   657.52809   178.00000  20.11688             11.59184
908.18812   1520.46535  202.00000  18.46823             13.99019
906.44059   1934.96040  202.00000  17.97748             14.30419
904.85294   1172.91176  34.00000   8.24148              5.25427
909.31000   1278.83500  200.00000  17.25090             14.92492
914.45035   221.31560   282.00000  27.90580             13.78154
909.12393   332.22650   234.00000  20.66985             14.65262
910.92810   1802.48366  306.00000  22.06674             18.14983
912.62389   309.34071   226.00000  21.17911             13.82050
912.64074   1594.46667  270.00000  19.69306             17.53886
922.16013   383.89216   306.00000  33.32972             13.95642
913.63889   183.78333   180.00000  15.94289             14.44253
916.33209   1253.69776  268.00000  24.45209             14.06394
915.40385   706.97436   156.00000  15.24976             13.16578
917.75229   1867.52294  218.00000  19.18629             14.50203
923.79725   131.23711   291.00000  20.98817             17.87628
927.93985   835.30075   399.00000  25.61833             20.18662
926.62724   265.30108   279.00000  21.69771             16.49856
929.15434   1395.51125  311.00000  25.41954             15.78425
931.97509   1204.96441  281.00000  25.37067             14.24143
924.62963   1345.11111  81.00000   11.71004             8.82972
926.75281   1915.00562  178.00000  17.28014             13.20591
929.28444   1356.72889  225.00000  19.90580             14.63541
928.15423   1516.95522  201.00000  19.63330             13.19851
933.02827   683.82686   283.00000  27.54311             13.24335
933.10599   1607.46544  217.00000  19.85984             13.99756
941.59574   1326.26330  376.00000  32.00323             15.37977
939.81250   1313.55114  176.00000  22.02908             10.17245
941.20093   1377.62617  214.00000  20.74868             13.53545
942.67729   1847.33466  251.00000  22.59905             14.46607
940.83824   188.04412   204.00000  16.35776             16.04080
941.02513   627.25126   199.00000  19.00828             13.36149
941.48276   1782.09579  261.00000  21.20208             15.76231
941.61017   646.90960   177.00000  15.82818             14.25246
941.46512   1634.54070  172.00000  16.76399             13.11991
945.49225   1509.36434  258.00000  18.51954             17.85348
948.01282   324.04274   234.00000  22.35752             13.44085
943.64516   816.87097   31.00000   6.80663              5.87244
953.57391   1195.87246  345.00000  27.13828             16.65927
950.28358   1388.78607  201.00000  17.15322             14.95156
951.72103   1588.82403  233.00000  20.12335             14.79491
949.76923   837.78846   52.00000   9.55509              6.90997
956.50763   1639.91603  262.00000  23.37291             14.38425
958.77455   263.16000   275.00000  21.62402             16.32067
957.69907   433.12500   216.00000  17.53601             15.76602
961.72203   1354.50169  295.00000  21.93846             17.53495
959.13406   1712.41304  276.00000  26.10483             14.61333
957.72800   1906.29600  125.00000  13.21434             12.06166
959.38000   1845.82000  150.00000  15.22645             12.58966
964.26749   160.96708   243.00000  20.48011             15.26109
962.20500   1557.81500  200.00000  20.03912             12.92802
962.91935   661.41129   124.00000  15.71780             10.32745
961.67568   813.10811   37.00000   7.67360              6.22136
968.38462   671.54751   221.00000  17.77306             16.00440
971.64686   323.99670   303.00000  27.23991             14.40636
968.58852   1243.61244  209.00000  20.01561             13.38158
975.43506   1321.55519  308.00000  25.57841             15.73044
974.55172   1383.03017  232.00000  18.99566             15.68672
973.50943   1645.72170  212.00000  17.49419             15.65776
974.16129   619.11982   217.00000  17.47503             15.88105
976.88208   421.06132   212.00000  17.24778             15.69658
979.77941   1739.49632  272.00000  20.53013             16.99393
976.24074   1355.66667  54.00000   10.02129             6.94810
976.50000   828.77778   18.00000   5.25874              4.26875
984.44033   162.74486   243.00000  23.42046             13.64922
987.19856   1197.03610  277.00000  22.22976             15.91773
989.99627   308.82090   268.00000  23.29799             15.03937
989.07907   597.01860   215.00000  22.78865             12.33693
989.20243   1508.66802  247.00000  22.48773             14.04664
990.56881   410.98165   218.00000  18.28510             15.19040
993.52612   1377.17537  268.00000  24.27324             14.39037
988.48462   1754.67692  130.00000  14.51806             11.45619
992.92157   1364.39216  153.00000  16.79673             11.64917
992.93644   1487.18644  236.00000  24.16811             13.14947
998.81117   234.91223   376.00000  25.51328             19.11099
997.95238   1347.81548  168.00000  16.98992             12.59629
1002.08456  1626.19485  272.00000  19.31114             17.95433
1002.30102  634.78061   196.00000  17.94115             13.99042
1003.65306  595.63265   147.00000  16.39573             11.54081
999.91176   654.05882   34.00000   7.05886              6.16381
1010.75444  340.43195   338.00000  27.70548             15.68648
1004.87195  1832.47561  164.00000  16.44254             12.84828
1013.07092  818.31206   423.00000  27.26236             20.64251
1009.00000  648.61905   21.00000   5.52052              4.85621
1016.17890  388.77982   218.00000  17.78073             15.72201
1020.86603  1857.09091  209.00000  18.15749             14.75253
1025.69528  1209.65665  233.00000  20.73256             14.39687
1026.67458  598.75593   295.00000  20.95397             19.13358
1026.54264  629.55039   258.00000  20.44892             16.08326
1019.95455  646.11364   44.00000   8.51532              6.57644
1030.30886  311.54684   395.00000  24.24051             21.15814
1035.87293  1244.46961  362.00000  30.12983             15.91301
1029.81185  1423.29617  287.00000  22.13616             16.66914
1031.97537  330.41872   203.00000  18.03380             14.62054
1034.62914  799.26159   302.00000  21.71161             17.72675
1034.57732  1860.62371  194.00000  16.51061             15.31953
1037.49074  576.95833   216.00000  20.98954             13.47985
1039.19383  1348.76211  227.00000  18.00773             16.15765
1040.06918  1719.64780  159.00000  16.34364             12.38406
1044.21739  1828.10628  207.00000  19.75516             13.44823
1049.48750  1768.18750  160.00000  14.99768             13.89621
1053.92090  1366.06780  177.00000  18.44328             12.32010
1051.55372  1855.96694  121.00000  13.29172             11.64603
1056.90265  1790.49558  226.00000  18.51049             15.62976
1055.89947  1469.93651  189.00000  17.11293             14.21530
1061.98958  1606.66667  288.00000  22.93289             16.08736
1060.71759  1755.78241  216.00000  21.19372             13.11120
1060.88660  560.99485   194.00000  17.94926             13.98708
1060.57621  650.15242   269.00000  22.44763             15.36411
1058.34000  796.84000   50.00000   8.76592              7.24013
1063.22527  1842.24725  182.00000  18.05897             12.95791
1068.12308  1718.29231  195.00000  20.17812             12.43044
1068.03398  1338.55825  206.00000  18.20845             14.44074
1069.44444  345.01709   234.00000  21.08767             14.24120
1074.23954  1214.96578  263.00000  23.13675             14.79791
1075.79118  640.22353   340.00000  29.50556             14.97513
1069.21875  1749.57292  96.00000   12.63149             9.81978
1083.98969  1409.08247  194.00000  20.24707             12.43902
1083.49624  353.18045   266.00000  22.20082             15.59595
1085.01739  1452.06957  345.00000  25.39659             17.51217
1084.82938  1366.21801  211.00000  16.61405             16.23461
1085.64740  1383.85549  173.00000  20.00786             11.05940
1090.17746  1171.67386  417.00000  25.67456             20.91119
1092.86239  1401.90367  218.00000  26.98476             10.53935
1087.17143  1827.67619  105.00000  12.85736             10.59773
1091.87317  556.18049   205.00000  18.69189             14.05358
1095.40731  766.03133   383.00000  26.38845             18.89611
1094.93239  1590.40000  355.00000  25.64939             18.43037
1097.07895  1691.43158  190.00000  20.41284             12.20976
1095.39844  363.07031   128.00000  13.80216             11.87986
1096.26415  1736.32704  159.00000  16.28468             12.47514
1104.16381  498.17604   409.00000  25.17356             21.29700
1096.24242  1228.45455  33.00000   6.92326              6.04563
1104.77083  1770.16667  240.00000  20.34297             15.25818
1102.44853  1702.80147  136.00000  15.86841             11.03430
1108.51825  369.56204   274.00000  28.31600             13.29968
1109.66304  1328.66848  184.00000  17.81150             13.19261
1109.72340  672.10106   188.00000  16.41016             14.72153
1116.04688  537.09375   256.00000  25.14320             13.42176
1106.95000  660.40000   20.00000   6.05257              4.19123
1108.81081  652.72973   37.00000   8.05841              5.83759
1117.40303  472.51515   330.00000  24.66787             17.15163
1114.13260  1698.67403  181.00000  18.58859             12.43667
1120.18027  765.37075   294.00000  25.68960             14.74196
1117.92340  1817.94894  235.00000  21.06511             14.27891
1121.14826  415.24419   344.00000  29.92646             14.88198
1120.07755  1742.42041  245.00000  18.70612             16.73630
1124.53651  720.43810   315.00000  23.96919             17.23337
1124.59684  1519.44269  253.00000  20.91115             15.70251
1120.55882  681.52941   34.00000   6.94516              6.22530
1126.57456  1368.35088  228.00000  19.97322             14.72774
1130.37293  389.19890   362.00000  35.80473             14.08037
1129.36818  1386.35455  220.00000  20.79585             13.50851
1132.61832  554.00763   262.00000  23.20216             14.79116
1133.00000  1551.24444  180.00000  17.81437             12.92383
1136.69930  1503.09441  286.00000  24.38814             15.42113
1136.39841  736.61753   251.00000  21.57439             14.89325
1137.91556  1817.08000  225.00000  18.70523             15.35521
1137.69512  1444.56707  164.00000  16.23976             12.90788
1138.91342  1855.14719  231.00000  20.25923             14.61918
1135.98261  1904.96522  115.00000  12.62979             11.79145
1144.51058  1585.09788  378.00000  30.08338             16.52956
1137.25478  1768.84713  157.00000  18.25834             10.98918
1142.22543  1347.21387  173.00000  15.55244             14.18616
1143.24468  1694.97872  188.00000  18.00525             13.55662
1155.18878  1339.59184  196.00000  18.35127             13.78536
1156.00935  1932.57009  107.00000  12.77135             10.78895
1159.52885  1468.38942  208.00000  20.97518             12.84173
1158.57803  1864.38150  173.00000  15.29647             14.46730
1158.82166  1720.30573  157.00000  16.65904             12.05140
1162.58786  1434.78275  313.00000  22.70150             18.48356
1161.53846  1690.13462  208.00000  20.34978             13.13376
1165.60784  1617.01961  153.00000  19.33336             10.35401
1169.49402  1752.31873  251.00000  20.39051             15.88165
1169.54592  1922.02551  196.00000  18.74334             13.45553
1174.30924  432.22892   249.00000  24.28655             13.35535
1171.62602  1634.35772  123.00000  13.27835             11.79576
1176.78191  528.17553   188.00000  21.60809             11.51901
1176.96259  1582.44558  294.00000  20.30951             18.63062
1177.29348  540.90761   184.00000  15.98640             14.91012
1180.48246  106.07018   228.00000  18.76878             15.70340
1181.81865  565.38342   193.00000  17.14846             14.40514
1184.60377  1128.09906  212.00000  18.56952             14.63178
1181.60494  1644.95679  162.00000  18.06920             11.51120
1188.82007  239.19723   289.00000  23.40494             15.89224
1184.87931  1448.38506  174.00000  17.15030             12.94009
1187.71698  1854.96698  212.00000  17.25217             15.73865
1184.53659  1112.41463  41.00000   9.16082              5.69467
1187.74138  1704.22989  174.00000  17.28050             12.93919
1188.44604  430.57554   139.00000  14.09278             12.62592
1194.36207  1723.00000  174.00000  15.50186             14.32254
1195.18248  1642.98540  137.00000  15.54917             11.38674
1198.08861  1396.68354  237.00000  18.79012             16.08118
1199.42396  128.06912   217.00000  19.10898             14.60906
1200.59582  577.44599   287.00000  21.87993             17.07338
1201.61039  1414.00000  154.00000  17.30798             11.41108
1205.55144  1764.42798  243.00000  22.70906             13.79779
1202.13281  1708.70312  128.00000  14.27564             11.45159
1210.17204  149.66667   186.00000  18.21531             13.04642
1212.50420  1699.99160  119.00000  15.43384             9.94169
1214.72081  230.76650   197.00000  18.57309             13.55294
1221.15100  1946.04843  351.00000  22.64175             20.02954
1222.87500  1411.01974  304.00000  22.54320             17.78144
1222.45251  1443.24022  179.00000  16.42483             13.86579
1225.17143  2032.96190  105.00000  12.53092             10.84816
1228.98361  1592.38525  244.00000  18.42798             16.85224
1236.84936  1398.69872  312.00000  24.90465             16.11001
1236.66102  1662.19322  295.00000  21.04234             18.18374
1236.15423  527.31841   201.00000  18.77736             13.66097
1237.09496  226.03561   337.00000  25.63331             17.11413
1241.04235  185.86645   307.00000  25.38436             15.77069
1238.77293  1748.63755  229.00000  22.00882             13.25412
1241.18182  1721.98864  264.00000  21.24216             15.94490
1242.14500  260.43500   200.00000  17.93788             14.33277
1246.69832  170.53073   179.00000  15.84305             14.45069
1249.33641  1643.40092  217.00000  20.53915             13.59624
1247.33673  2028.86735  98.00000   12.60870             9.99114
1251.21788  1161.45251  179.00000  18.51250             12.32249
1252.60417  283.34375   192.00000  18.52621             13.23689
1251.47514  1585.37017  181.00000  18.02205             12.86084
1259.88629  510.05351   299.00000  24.85490             15.42231
1257.29474  1446.24211  190.00000  16.79039             14.49382
1262.90252  1702.65723  318.00000  25.56442             16.51151
1257.74566  346.47977   173.00000  17.78041             12.55257
1261.45143  378.17143   175.00000  15.34232             14.56305
1261.12717  1738.16185  173.00000  17.67257             12.54527
1265.19718  466.43662   355.00000  27.04815             17.82176
1264.01515  1876.03535  198.00000  17.43009             14.51181
1263.53608  328.44845   194.00000  19.59218             12.62302
1266.30488  1463.50813  246.00000  20.98855             14.98538
1266.00000  1604.03419  234.00000  20.51823             14.61678
1270.19463  415.81208   298.00000  20.59694             18.87982
1275.89457  1566.50160  313.00000  26.91235             15.60069
1272.72632  365.55439   285.00000  22.97680             15.97761
1274.70721  1446.65315  222.00000  19.42115             14.63273
1275.27411  1539.32995  197.00000  17.22519             15.05198
1276.64455  1176.50711  211.00000  17.45729             15.44560
1281.32692  231.10769   260.00000  19.73150             16.88614
1286.67513  1699.62944  197.00000  18.94181             13.25587
1284.65468  1942.32374  139.00000  14.79073             12.04944
1300.51894  1175.95455  264.00000  22.23868             15.23380
1307.38660  1876.32474  194.00000  18.00434             13.89253
1310.82026  1615.83007  306.00000  22.53500             17.37867
1311.20084  1499.59414  239.00000  18.35071             17.39102
1322.53356  1443.79530  298.00000  24.79892             15.32214
1323.55906  1660.18898  254.00000  23.46271             13.92981
1321.48958  223.41667   192.00000  16.68598             14.66738
1321.88235  1006.58333  204.00000  17.67828             14.73986
1325.02058  1184.92593  243.00000  20.73390             15.07739
1332.17391  1202.42809  299.00000  24.63787             15.74443
1337.68301  317.37908   306.00000  25.13073             15.84865
1334.52381  1944.64286  126.00000  14.39603             11.14577
1340.63761  1693.45872  218.00000  23.42524             12.01189
1338.18713  1477.57895  171.00000  15.48256             14.12327
1340.49057  1663.55472  265.00000  22.88396             15.01155
1346.16352  304.95597   159.00000  15.15039             13.45645
1345.35833  1997.73333  120.00000  12.88014             11.84806
1357.79639  231.64948   388.00000  25.24055             20.01023
1358.79913  1882.36245  229.00000  19.81224             15.14683
1357.37374  1946.56566  198.00000  18.12355             13.94436
1362.72249  1632.69378  209.00000  17.65963             15.09549
1363.49714  1667.50286  175.00000  17.62052             12.80569
1370.35254  1030.37627  295.00000  24.10813             15.86837
1372.26820  1451.83525  261.00000  23.66218             14.93750
1376.24286  338.02857   280.00000  32.85889             11.28437
1376.20385  1700.73462  260.00000  24.91198             13.40958
1379.20792  1785.75248  202.00000  16.93796             15.31413
1387.18898  274.10630   508.00000  28.22955             23.46671
1382.78125  2000.37500  128.00000  15.12252             10.89925
1397.18750  1685.82721  272.00000  23.71113             14.98355
1398.99504  1224.71464  403.00000  34.42399             15.76591
1394.82456  1884.64035  114.00000  14.87313             10.14025
1397.90545  323.94182   275.00000  21.28590             16.69602
1397.40171  1911.79487  117.00000  12.31197             12.15700
1408.25459  846.16798   381.00000  31.79571             15.68174
1398.56122  1974.56122  98.00000   12.34632             10.41680
1401.13684  1037.54737  190.00000  17.09584             14.34856
1402.45078  1798.91710  193.00000  18.86021             13.18103
1407.55794  236.48498   233.00000  18.47109             16.16060
1409.17614  2017.01136  176.00000  15.65449             14.42795
1412.76652  1063.13656  227.00000  19.23733             15.25802
1414.90909  1701.37710  297.00000  22.10083             17.17177
1413.78409  1671.98295  176.00000  17.69709             12.80514
1417.64615  1441.25128  195.00000  18.96619             13.24864
1415.84466  1814.22330  103.00000  12.96661             10.40555
1415.38655  1913.47899  119.00000  13.03366             11.67896
1416.23404  1209.51064  47.00000   9.58312              6.24061
1421.91457  377.26633   199.00000  18.57383             13.73300
1428.31897  244.84483   232.00000  23.09850             13.01053
1428.61582  1668.71751  177.00000  17.96993             12.64720
1428.99057  1950.76415  106.00000  12.26603             11.03906
1433.00370  229.29630   270.00000  20.19679             17.08507
1437.92308  2037.07692  65.00000   9.44270              8.80559
1445.67391  1160.71377  276.00000  22.38082             15.85898
1445.26636  1620.97664  214.00000  18.99167             14.39772
1445.94241  271.71204   191.00000  16.47073             14.77812
1449.22707  1237.68122  229.00000  20.64522             14.27264
1453.15194  1094.81625  283.00000  20.89591             17.38178
1453.32046  1676.93822  259.00000  21.45315             15.56020
1457.68182  1180.26705  352.00000  22.32742             20.42053
1463.26667  859.74203   345.00000  26.21134             17.23809
1461.03738  1230.11682  214.00000  21.36363             12.94523
1460.85366  271.40244   164.00000  16.45021             12.79551
1463.07971  1598.93116  276.00000  24.12390             15.18024
1462.19403  1931.61194  201.00000  20.31779             12.70941
1468.88283  1374.04360  367.00000  33.30165             15.44765
1466.61194  1691.77114  201.00000  17.30485             14.84719
1467.06486  1115.94595  185.00000  17.17605             13.74219
1468.37379  1142.08252  206.00000  18.44611             14.29503
1470.55405  1817.63514  148.00000  15.46963             12.27281
1474.63036  382.55446   303.00000  22.42440             17.49555
1470.57000  1889.14000  100.00000  12.54755             10.48079
1473.74847  265.93865   163.00000  15.80578             13.22948
1474.85350  366.88535   157.00000  16.79774             11.93115
1476.80989  1580.77186  263.00000  21.66626             15.60072
1476.55556  1867.05556  180.00000  16.26268             14.11240
1476.84800  1677.36000  125.00000  12.84301             12.50815
1478.91391  1723.23841  151.00000  15.75748             12.19699
1479.31098  1759.77439  164.00000  16.43864             12.74113
1492.65769  200.57692   260.00000  23.62964             14.08250
1494.37132  852.97059   272.00000  20.75743             17.16435
1492.16667  1876.77619  210.00000  17.89384             15.07609
1493.61628  169.94186   172.00000  17.25745             12.86977
1495.61927  218.59633   218.00000  19.88052             14.06355
1495.99639  1404.57762  277.00000  24.38854             15.65160
1495.62805  268.98171   164.00000  15.87144             13.21955
1500.91837  54.17347    196.00000  17.97189             13.97428
1505.96124  1158.24031  258.00000  23.23796             14.51899
1506.68526  1546.94821  251.00000  22.01953             14.72234
1507.21888  1692.15451  233.00000  22.76281             13.07826
1511.34171  1559.35678  199.00000  18.49281             13.70766
1509.99034  1817.92754  207.00000  16.72113             15.81687
1509.28155  1192.45631  206.00000  18.60672             14.13204
1510.42697  1708.88764  89.00000   13.45306             8.95355
1510.64179  1210.52239  67.00000   11.42062             7.50629
1512.40625  1723.83854  192.00000  16.78762             14.59000
1513.66492  60.16754    191.00000  16.53453             14.77395
1514.16312  167.96454   141.00000  15.77005             11.73925
1515.62115  361.25551   227.00000  20.03183             14.51604
1522.07512  204.35211   213.00000  17.69927             15.39480
1525.75932  1169.03390  295.00000  25.43092             15.18868
1529.12134  1251.23013  239.00000  19.88125             15.49316
1528.31250  1444.31579  304.00000  27.96421             13.91148
1528.29386  145.64474   228.00000  19.39628             15.16335
1533.74386  851.83509   285.00000  24.48108             14.89162
1528.70807  1709.67081  161.00000  15.40092             13.31557
1530.03049  1183.13415  164.00000  15.66399             13.38711
1533.00394  53.82677    254.00000  19.41759             16.65551
1531.50806  1848.25000  124.00000  13.34646             11.96635
1534.49038  1938.44231  208.00000  16.72753             15.88360
1540.50980  1695.20588  204.00000  17.25924             15.12911
1541.04608  186.50691   217.00000  16.99740             16.36770
1542.25413  1196.44224  303.00000  24.15882             16.02527
1541.25581  1487.75581  172.00000  17.44893             12.64722
1544.77809  1223.23876  356.00000  22.49456             20.25851
1541.91411  1823.37423  163.00000  15.52436             13.44554
1542.82063  1269.73543  223.00000  21.08576             13.62528
1544.40541  1664.09910  222.00000  20.32337             14.04346
1548.17890  367.06422   218.00000  18.97471             14.80785
1549.82474  164.46392   194.00000  18.51601             13.34498
1548.99468  1479.02660  188.00000  19.19602             12.61589
1552.49600  78.09200    250.00000  20.64820             15.47889
1554.82320  859.09392   181.00000  20.70228             11.13804
1553.82938  136.68246   211.00000  18.36331             14.76414
1553.26519  1844.99448  181.00000  15.92180             14.51844
1564.38739  1546.12387  444.00000  29.27867             19.75993
1561.48980  174.71429   196.00000  19.08171             13.16338
1559.73394  1208.36697  218.00000  18.58647             15.02136
1559.64623  1683.21698  212.00000  19.84758             13.62285
1562.34286  107.43265   245.00000  19.31532             16.26018
1565.54878  1119.64634  246.00000  21.93594             14.41075
1567.67442  846.87043   301.00000  23.64093             16.50990
1567.89161  1295.75175  286.00000  23.93407             15.78086
1569.73978  46.24164    269.00000  21.06828             16.36112
1566.93333  156.84444   180.00000  16.97069             13.53446
1572.13919  301.28205   273.00000  24.54091             14.50526
1565.04545  1276.72727  22.00000   5.51951              5.07607
1572.80822  1610.86758  219.00000  20.57155             13.69387
1577.27434  1940.43363  226.00000  19.44248             15.04472
1577.65327  366.04523   199.00000  18.19521             14.39162
1593.36137  351.86604   321.00000  24.57424             17.04634
1590.41615  1308.28571  161.00000  16.61996             12.36497
1591.94737  1218.79532  171.00000  15.52439             14.13255
1596.42510  275.88259   247.00000  21.58148             14.72178
1597.84188  1730.55556  234.00000  21.17893             14.15646
1611.79216  1307.04314  255.00000  28.95522             11.92508
1605.36364  1213.91558  154.00000  16.15773             12.14937
1615.10899  852.66757   367.00000  26.85861             17.65341
1614.17778  1247.92778  180.00000  16.91107             13.59427
1611.76510  1330.52349  149.00000  15.31723             12.41376
1616.21028  52.45794    214.00000  17.59850             15.69409
1614.91758  275.76374   182.00000  17.70147             13.14780
1617.62273  1084.20909  220.00000  20.16365             14.08983
1616.96875  1904.92500  160.00000  16.44192             12.43615
1622.45848  1737.67870  277.00000  22.02026             16.18750
1617.08571  1063.11429  35.00000   7.60302              5.88791
1625.83920  6.59296     199.00000  16.42462             15.56092
1627.30631  345.50901   222.00000  19.51788             14.55404
1629.19613  1103.17403  362.00000  25.18601             18.71127
1627.33690  1333.32620  187.00000  18.21545             13.11058
1628.88500  137.43000   200.00000  20.83330             12.35490
1629.85830  161.70850   247.00000  23.07208             13.65711
1630.59709  1247.96602  206.00000  20.95603             12.64972
1630.57463  1218.68657  134.00000  15.99424             10.80150
1636.55417  831.11250   240.00000  23.57692             13.15344
1632.70323  1078.29032  155.00000  15.24951             13.03288
1637.63498  1263.20152  263.00000  22.39391             15.04382
1638.35455  57.19091    110.00000  14.41640             10.08556
1640.48171  1222.21951  164.00000  17.27383             12.45712
1639.62887  247.67526   194.00000  17.38503             14.24142
1647.59593  262.02035   344.00000  32.87463             16.06058
1644.85000  24.50833    240.00000  20.02746             15.34948
1645.88755  1244.11647  249.00000  20.20910             15.78293
1648.38141  1277.77244  312.00000  23.88400             16.66990
1644.76259  214.15108   278.00000  25.46514             13.94493
1642.56716  160.17910   67.00000   11.30736             7.55319
1648.61429  71.33571    140.00000  15.82272             11.28213
1655.15534  1035.27184  206.00000  19.09862             13.77646
1657.09524  1759.94709  189.00000  16.57778             14.58103
1661.62037  1185.73457  324.00000  23.21431             18.05980
1670.60825  1037.36082  194.00000  16.92269             14.74636
1670.33659  1294.05366  205.00000  17.36579             15.09724
1684.93776  57.02075    241.00000  21.29138             14.45391
1688.41144  1227.02997  367.00000  28.76410             16.28313
1684.85263  1171.02105  190.00000  19.30337             12.58547
1685.74872  166.09744   195.00000  19.09053             13.59977
1687.82400  39.93600    125.00000  13.61090             11.86753
1696.04545  117.11688   154.00000  15.88144             12.85669
1700.56958  1292.15534  309.00000  23.31341             17.01271
1698.73214  147.67857   168.00000  17.03212             12.64012
1700.26738  839.53476   187.00000  16.75632             14.24493
1702.85590  266.44105   229.00000  19.07960             15.34580
1707.73267  337.44554   202.00000  20.06275             12.92699
1711.50758  1009.22348  264.00000  20.60563             16.52919
1710.82400  1950.60000  125.00000  13.72135             11.68781
1714.78161  830.63218   174.00000  17.66473             12.56413
1721.45307  351.75728   309.00000  25.15437             15.83332
1724.33745  797.99588   243.00000  18.94376             16.45654
1724.35242  115.85463   227.00000  19.69440             14.80828
1726.71685  1229.93907  279.00000  25.23210             14.19749
1723.92742  1897.07258  124.00000  13.41492             12.27640
1727.86631  1163.35294  187.00000  20.04523             11.92560
1732.20809  836.95376   173.00000  15.96251             13.91335
1740.88421  986.38947   190.00000  19.92915             12.14726
1742.23451  205.06195   226.00000  19.59570             15.06523
1746.80228  844.57034   263.00000  20.94495             16.29236
1748.41241  1290.36496  274.00000  21.97085             16.46647
1751.99215  1639.97120  382.00000  33.04847             15.69788
1752.71503  338.35233   193.00000  18.48415             13.49281
1753.74747  777.58586   198.00000  22.46393             11.33027
1750.77372  1215.94161  137.00000  14.15627             12.36711
1755.53448  69.75287    174.00000  16.21830             13.82711
1756.12150  1143.77103  214.00000  17.94542             15.26675
1755.51748  90.90909    143.00000  14.51142             12.92671
1758.47107  352.19835   242.00000  19.48830             15.86805
1761.96791  29.89305    187.00000  16.97660             14.07474
1765.08966  1222.88276  290.00000  21.18708             17.60174
1765.96429  254.13889   252.00000  20.97132             15.54109
1763.54301  8.05376     186.00000  17.24111             13.82539
1775.98969  857.31959   291.00000  26.29572             14.90816
1770.65179  117.85714   112.00000  13.21317             11.28222
1775.77711  1318.16566  332.00000  22.10250             19.27680
1774.19672  43.06557    183.00000  16.87577             13.99712
1779.72115  1238.13942  208.00000  21.04754             12.61806
1781.92800  206.44400   250.00000  20.82583             15.44563
1779.69375  1694.96250  160.00000  16.77992             12.14130
1782.53617  784.31064   235.00000  19.62998             15.35540
1788.11983  968.73554   242.00000  21.65396             14.24828
1791.60173  770.56710   231.00000  25.36991             11.63849
1788.91209  89.96154    182.00000  16.47245             14.05426
1791.50909  109.43030   165.00000  15.61373             13.55792
1796.94961  349.98062   258.00000  22.39447             14.88845
1797.33333  747.05556   216.00000  19.65670             14.16078
1794.04317  159.69784   139.00000  14.97967             11.86813
1794.32927  1696.98780  82.00000   12.22429             8.64760
1797.21739  225.57609   184.00000  16.64145             14.10967
1804.00858  648.96567   233.00000  17.99090             16.55316
1808.54076  686.36685   368.00000  26.84095             18.57397
1807.15054  182.24731   186.00000  17.22186             13.81451
1815.95480  739.23729   177.00000  17.36339             13.08631
1817.61616  971.24747   198.00000  17.91179             14.14328
1817.98160  90.29448    163.00000  16.94893             12.29609
1821.22078  203.68831   77.00000   10.34971             9.69422
1826.65934  188.79121   91.00000   12.51505             9.40105
1829.13333  231.76000   150.00000  15.15980             12.59052
1835.09843  334.81890   254.00000  23.85070             13.59394
1833.42157  859.55392   204.00000  19.28507             13.58849
1835.84615  724.37308   260.00000  18.64158             17.84660
1833.60526  710.35965   114.00000  12.53066             11.62418
1838.24390  155.17073   123.00000  15.04233             10.85984
1839.81818  699.50758   132.00000  14.59516             11.55343
1843.62557  1320.97260  219.00000  18.77511             14.94764
1855.34783  235.13768   138.00000  15.50943             11.42086
1857.41954  667.72989   174.00000  16.01438             13.95451
1860.64800  865.10000   250.00000  19.34494             16.63967
1871.76678  1186.55830  283.00000  22.09074             16.36144
1871.01667  135.08333   180.00000  16.27525             14.13823
1892.45055  258.25824   182.00000  19.04300             12.52666
1896.83077  676.35385   260.00000  25.84285             12.94103
1903.32540  213.59524   126.00000  13.96144             11.51952
1910.95238  232.08163   147.00000  15.05415             12.47385
1921.44531  1287.69141  256.00000  23.45737             14.10205
1923.69534  1169.62007  279.00000  23.05410             15.43993
1921.98000  119.59000   200.00000  16.64664             15.43610
1928.00957  136.77990   209.00000  18.17844             14.84150
1944.04721  279.95708   233.00000  18.47351             16.09051
1948.66814  1157.79204  226.00000  22.70792             12.74885
1954.08571  175.12857   140.00000  15.71728             11.74549
1961.25166  1143.94040  151.00000  16.87761             11.39115
1987.37915  687.46445   211.00000  21.09651             12.84803
1989.56410  252.79487   117.00000  14.03587             10.94035
1992.94152  285.12281   171.00000  16.18543             13.57690
2015.27667  1281.41000  300.00000  25.33908             15.47439
2017.36364  234.88636   220.00000  19.95980             14.33916
2035.61579  669.12105   190.00000  17.07913             14.22606