# Filename: Nuclei_416_ctrl_008.npz
# Voxel size (nm): (108, 108)
# Area quantity: voxels
# Num nuclei detected: 738
Y           X           AREA        MAJOR_AXIS_LENGTH    MINOR_AXIS_LENGTH
6.04321     217.16049   162.00000   15.43665             13.49471
7.48691     1432.53927  191.00000   18.67271             13.20931
43.15455    1940.10909  220.00000   19.69795             14.36917
44.89540    1592.24686  239.00000   20.50640             15.11222
49.88571    13.48571    140.00000   16.41666             11.09419
51.34050    33.56989    279.00000   26.10635             13.89496
57.81463    1908.61463  205.00000   21.44186             12.38386
75.57466    1754.06335  221.00000   18.50191             15.58936
76.83654    1864.11538  208.00000   19.21894             13.84501
87.40217    1670.33696  276.00000   31.17108             11.48483
81.30137    1827.28311  219.00000   21.41286             13.06588
86.30241    191.56701   291.00000   22.24412             16.94403
92.48397    1329.74038  312.00000   34.88126             11.81958
86.86348    53.75768    293.00000   26.91991             14.39303
98.42151    139.66570   344.00000   34.49769             13.48468
100.16301   1634.47649  319.00000   23.94556             17.13401
104.52846   1733.90650  246.00000   22.30493             14.41529
108.21811   1677.17284  243.00000   19.39315             16.05391
106.64583   1802.79167  240.00000   18.71483             16.60683
125.15596   1291.09480  327.00000   29.05750             15.00408
120.48299   81.61905    147.00000   15.25225             12.32696
127.49346   1336.02614  306.00000   24.89418             16.92757
135.07767   1316.03398  206.00000   19.30382             13.59558
139.29143   91.76000    175.00000   17.07008             13.41727
141.14486   106.44860   214.00000   19.98779             13.84014
147.22407   1298.21577  241.00000   23.30907             13.25155
148.60000   839.67692   260.00000   23.32332             14.30574
158.71972   1312.66436  289.00000   31.72127             11.75893
161.87273   1931.03182  220.00000   21.96631             12.87867
163.81437   1666.08383  167.00000   21.36901             10.04873
170.33878   109.53061   245.00000   19.45790             16.19965
172.03390   127.45763   118.00000   13.95503             10.94159
178.96507   1894.49345  229.00000   23.56237             12.46233
179.34701   1273.66791  268.00000   23.88990             14.50165
190.50193   1658.56371  259.00000   24.47724             13.54061
189.38545   735.80727   275.00000   19.72150             17.83163
187.53425   116.00000   146.00000   14.49271             13.18249
194.04399   637.33724   341.00000   27.02991             16.38439
195.11538   1306.41259  286.00000   30.08924             12.14170
201.17647   1257.34706  340.00000   26.21287             16.94735
207.90588   138.82941   170.00000   18.69261             11.72238
225.60517   801.71587   271.00000   28.28153             12.33362
231.60616   701.09932   292.00000   21.85919             17.25797
245.40698   852.75969   258.00000   20.61043             16.19193
245.86667   138.51333   150.00000   14.89307             12.84741
245.99324   152.26351   148.00000   15.47483             12.30520
258.25597   1313.04437  293.00000   22.99205             16.33374
265.72759   722.46897   290.00000   23.80157             15.89209
274.55422   621.86024   415.00000   33.95229             16.51083
275.97578   656.89965   289.00000   21.54464             17.50820
281.05147   793.15809   272.00000   25.01547             14.35952
274.80392   1317.86275  102.00000   13.75500             9.52195
278.93985   1355.80451  266.00000   26.47174             12.92861
277.66871   1644.06135  163.00000   19.38227             10.83658
284.51965   111.19214   229.00000   20.38783             14.82950
284.01587   1303.47619  63.00000    9.70008              8.28405
294.62537   1280.26254  339.00000   25.72344             17.37918
300.43431   639.58029   274.00000   27.88351             12.58788
298.26222   1309.21333  225.00000   18.16478             15.86439
301.61250   1347.57500  240.00000   22.72120             13.48039
304.68235   22.14118    255.00000   20.97585             15.73487
304.20886   168.54430   158.00000   16.15068             12.55049
316.35338   1139.20301  266.00000   30.45425             11.17131
315.47115   1280.79808  208.00000   20.46176             13.22719
317.66807   1328.74370  238.00000   22.82154             13.37477
323.08300   776.15415   253.00000   28.33759             11.42635
318.90395   169.03390   177.00000   18.35978             12.32406
317.25455   1304.11818  110.00000   12.45807             11.32214
320.15254   153.19209   177.00000   18.79700             12.04012
326.80916   846.15649   262.00000   21.79544             15.56320
350.54118   807.82353   170.00000   14.99417             14.53968
349.74490   160.72449   98.00000    13.50194             9.60936
358.51887   163.74528   106.00000   15.44799             8.89004
362.16575   815.97790   181.00000   16.85979             13.72608
368.82432   165.19595   148.00000   17.21918             10.98463
383.63415   1172.50136  369.00000   34.72285             14.03356
395.55827   323.70935   695.00000   35.46403             26.11561
395.32510   1603.25103  243.00000   25.07875             12.36727
397.00505   787.69697   198.00000   18.97203             13.33509
396.77044   282.74843   318.00000   30.14171             14.24535
400.59559   240.31618   136.00000   14.10840             12.50065
402.43023   252.85465   172.00000   16.48601             13.57769
404.38857   267.85714   175.00000   18.43875             12.13409
410.34921   1647.62963  189.00000   23.63529             10.34535
411.86381   111.11284   257.00000   21.43449             15.34505
409.12222   226.86111   180.00000   18.08480             12.77990
410.33495   205.56796   206.00000   20.82285             12.68576
420.44701   61.97688    519.00000   38.21720             18.19551
418.48095   1639.10000  210.00000   24.67073             11.07157
412.37013   187.81169   154.00000   17.12541             11.74900
426.98673   1193.91593  226.00000   24.52845             11.85796
427.72821   790.91282   195.00000   17.89434             13.97899
428.11364   1433.13636  308.00000   22.91427             17.61614
431.87234   94.95745    188.00000   18.52715             13.13545
435.51905   137.88095   210.00000   19.47374             13.87042
433.73529   110.43382   136.00000   15.48878             11.25482
437.78689   123.77049   244.00000   21.37006             14.83395
431.43382   202.85294   136.00000   18.28575             9.51983
442.34014   47.25850    147.00000   15.27045             12.33001
445.13450   176.29240   171.00000   17.50951             12.48037
449.86611   110.81172   239.00000   20.82698             14.74335
455.08544   1609.44937  316.00000   25.45058             15.98445
459.73770   531.19672   305.00000   38.64804             12.22330
454.20625   1257.35938  320.00000   22.90393             18.03920
455.52027   194.67568   148.00000   15.62945             12.36292
464.30108   150.33333   186.00000   20.72671             11.49629
465.76031   1318.81701  388.00000   31.02975             16.66617
465.91506   1654.31660  259.00000   22.88486             14.54484
467.06965   664.25373   201.00000   20.91611             12.37296
465.25728   65.14078    206.00000   17.72118             14.90687
472.86290   469.55645   372.00000   30.30361             15.85029
470.46119   121.70320   219.00000   20.33168             13.87229
475.67160   487.90533   338.00000   33.89217             13.09712
470.93785   776.87571   177.00000   19.39989             11.67603
471.35644   46.13861    202.00000   18.31138             14.14833
474.79044   80.81250    272.00000   22.13084             16.04100
474.20266   611.24252   301.00000   24.93603             15.71882
470.57265   193.05983   117.00000   13.72186             10.93475
479.17544   549.57456   228.00000   20.91752             14.06185
482.48980   1224.42517  294.00000   25.21212             15.28191
483.98881   431.52612   268.00000   24.97862             13.91431
480.15172   757.91724   145.00000   15.98517             11.57389
484.32203   192.53107   177.00000   16.60539             13.87063
487.49789   534.34177   237.00000   18.44134             16.45162
488.84549   70.66524    233.00000   18.46487             16.21152
494.12238   1609.72378  286.00000   24.22828             15.18760
494.08197   339.59290   366.00000   22.70563             21.57795
502.23161   619.75477   367.00000   34.79044             13.59959
498.54375   194.37500   160.00000   17.44049             11.73663
502.13855   429.89458   332.00000   26.67688             15.98504
510.73840   747.38819   237.00000   24.98125             12.12630
514.45538   413.44000   325.00000   28.26916             15.04216
511.60324   462.06883   247.00000   21.71636             14.67955
518.12299   655.44920   187.00000   21.43665             11.18319
517.75937   33.17813    320.00000   26.20193             15.58284
521.08429   1655.96169  261.00000   24.27686             13.82037
526.03955   213.95480   177.00000   16.89424             13.44906
530.43415   253.78537   205.00000   20.94936             12.63003
535.76613   506.52823   248.00000   21.56984             14.77736
543.73759   1637.93262  282.00000   22.03641             16.37425
556.04222   530.00264   379.00000   28.27952             17.71864
555.60526   437.50526   190.00000   18.32866             13.24619
561.25359   911.77512   209.00000   21.97094             12.26325
561.88973   501.08365   263.00000   20.77404             16.25683
560.75532   774.25532   94.00000    13.72767             8.79175
570.82746   1274.05634  284.00000   28.64001             13.09597
564.62559   46.45735    422.00000   34.81672             16.12946
570.13006   875.81792   346.00000   24.45791             18.93442
568.55263   1311.02924  342.00000   24.08207             18.45989
567.50000   581.15000   240.00000   19.86548             15.48987
570.23232   788.22222   198.00000   18.78889             13.49862
586.08524   633.93766   786.00000   47.78346             21.61620
574.90678   213.69068   236.00000   17.76567             17.43362
583.08580   1594.06805  338.00000   35.04913             12.68109
582.91457   459.71357   398.00000   42.75467             12.79430
584.27778   788.31667   180.00000   16.92005             13.57227
592.81933   833.60504   238.00000   25.20972             12.20717
592.27572   1255.62963  243.00000   18.76703             16.58228
597.72776   592.28841   371.00000   29.03994             16.56055
593.05556   856.56349   126.00000   13.85618             11.81687
593.24118   907.02353   170.00000   18.28701             11.93654
599.33333   673.82051   468.00000   32.86366             19.13901
595.85784   1282.24510  204.00000   17.29117             15.17627
599.22026   1001.54626  227.00000   21.03232             13.89016
602.38312   878.29870   154.00000   17.59070             11.36121
599.81250   902.12500   64.00000    13.85318             6.14629
603.00000   223.96622   148.00000   15.64281             12.15833
610.93431   946.86861   274.00000   30.21258             12.42176
604.75676   1042.08108  185.00000   17.01382             14.00183
611.32852   479.37906   277.00000   30.24621             11.77957
606.51628   918.50233   215.00000   19.36593             14.38824
609.09551   898.85955   178.00000   17.82274             12.76585
612.87838   1619.06306  222.00000   24.54993             11.70934
615.06468   221.23383   201.00000   18.78352             13.73483
612.88489   235.86331   139.00000   17.55297             10.27889
620.94749   1032.35845  438.00000   26.03547             21.62739
619.62162   1731.64865  259.00000   25.90531             12.79661
622.34387   785.28063   253.00000   19.93765             16.25203
633.84516   1236.64946  465.00000   42.38906             14.88626
629.01163   978.84884   172.00000   21.21815             11.09908
635.88973   1652.82890  263.00000   29.95328             11.29593
634.09653   1293.30116  259.00000   19.78793             16.80721
642.84024   534.05720   507.00000   51.32926             14.11204
635.25137   775.14754   183.00000   17.54442             13.35817
638.90830   1614.28821  229.00000   20.88668             14.21034
651.55070   600.78330   503.00000   32.41033             20.23084
646.72271   787.62242   339.00000   30.27128             14.59370
650.00671   626.52349   298.00000   24.40966             16.33698
650.38272   1677.86008  243.00000   21.39445             14.64868
649.50179   14.83154    279.00000   22.85262             15.69646
648.24082   1278.44082  245.00000   23.56689             13.73486
654.00420   1015.67647  238.00000   26.00618             12.07485
654.09677   1705.08961  279.00000   26.32499             13.65813
671.58214   987.19643   280.00000   39.09282             10.29273
665.43574   777.92476   319.00000   32.44755             13.44406
666.55066   121.23348   227.00000   19.82564             14.73959
670.13388   673.92350   366.00000   31.32424             16.23215
675.28854   47.58893    253.00000   21.29419             15.32390
675.43434   1036.29293  198.00000   21.95893             12.02186
682.36940   643.16791   268.00000   23.63110             14.52571
686.38674   1007.88950  181.00000   21.07564             11.06046
687.02973   1653.52973  370.00000   30.83710             15.51517
692.09790   1501.23951  572.00000   35.80172             20.56113
700.38395   749.02820   461.00000   29.27335             21.23101
702.62866   1319.83062  307.00000   23.09088             18.24095
716.99496   524.15113   397.00000   39.83026             13.45373
709.38811   1542.91958  286.00000   28.66456             14.24648
709.33333   1072.56962  237.00000   20.01451             16.39423
711.46328   84.64689    354.00000   26.42196             17.09922
711.88839   1594.54018  224.00000   21.20281             13.66963
719.25231   212.19692   325.00000   37.02456             11.78675
715.11386   1457.04455  202.00000   20.15867             12.88651
717.62551   119.13580   243.00000   18.99123             16.67666
721.17808   1620.94863  292.00000   24.99940             14.96896
720.92784   1435.48969  194.00000   19.86121             12.53957
728.77941   646.46691   272.00000   30.36250             11.73852
724.80723   1639.01205  249.00000   24.16793             13.27335
741.78947   1023.09569  209.00000   26.46064             10.33380
739.45660   1265.92453  265.00000   32.23324             10.67702
743.82709   1245.66571  347.00000   30.21714             15.34167
746.80515   1653.63971  272.00000   28.61451             12.43792
748.13043   1367.80435  276.00000   24.21442             15.15983
752.30864   1391.13169  243.00000   26.34820             12.20419
755.83416   1462.08955  603.00000   36.09820             22.45600
748.79221   1356.81818  77.00000    11.13237             8.83580
752.73077   1015.34615  52.00000    9.12446              7.30476
757.69846   1833.62154  325.00000   21.21798             19.94473
759.04348   1051.82609  138.00000   21.38394             8.46193
760.68153   1581.96178  314.00000   28.58887             14.36153
774.87958   1063.90838  382.00000   46.20744             11.81724
765.75741   1537.12129  371.00000   43.69927             12.25119
762.44898   1010.70408  98.00000    15.17928             8.52749
766.32405   1800.28861  395.00000   26.47004             19.82609
766.93085   1214.85106  188.00000   18.52444             13.25964
767.44056   1319.42308  286.00000   29.13896             12.87923
771.74368   1437.67148  277.00000   23.09341             15.30071
774.12500   1021.60648  216.00000   24.73403             11.30144
772.09174   1630.84098  327.00000   28.11426             14.97143
777.02049   2014.56148  244.00000   20.85901             15.14893
786.90230   850.47701   348.00000   38.26621             12.38261
782.34989   1743.13607  463.00000   32.80414             18.61351
790.66551   1399.42509  287.00000   31.45070             11.91659
783.27174   1423.49457  184.00000   16.48814             14.20971
786.23041   1595.55300  217.00000   18.31748             15.13685
793.66216   1706.26062  518.00000   36.19029             19.37475
789.95928   1943.16742  221.00000   22.44114             12.67599
794.66667   1270.58156  282.00000   24.94531             15.45491
807.36638   365.08405   464.00000   41.64359             15.35551
803.09354   654.59243   449.00000   29.72055             20.44021
802.84012   1254.15698  344.00000   33.35858             13.25358
805.33816   1290.70048  414.00000   24.18047             22.14448
801.95429   1642.19429  350.00000   34.31642             13.75988
810.23355   554.28618   304.00000   31.76537             12.97931
814.37736   114.91644   371.00000   31.87992             15.32180
817.43425   1607.79511  327.00000   42.02639             10.30077
815.91785   774.17564   353.00000   35.39487             14.53319
827.94922   1920.92578  256.00000   23.26548             14.46851
836.27689   1486.36842  437.00000   38.09788             16.32450
832.38583   1055.66142  127.00000   14.81660             10.94009
835.29139   1371.87748  302.00000   24.12190             16.39916
848.32787   110.25410   488.00000   33.32382             19.16150
844.14286   322.57519   266.00000   20.06539             17.49417
848.49158   890.19529   297.00000   34.82528             13.21218
851.52068   1535.91484  411.00000   26.36088             20.63938
855.13620   587.89606   279.00000   25.37428             15.17895
849.43925   1030.89720  107.00000   14.63588             9.43805
852.10734   1507.66667  177.00000   17.70923             12.73780
857.03475   1587.67181  259.00000   22.11811             14.99692
853.98684   1827.95395  304.00000   30.74996             12.98920
859.09690   1340.70155  258.00000   24.90357             13.24796
863.46053   1081.96382  304.00000   24.79552             16.68689
859.47917   1247.28750  240.00000   18.48547             16.68007
869.43956   1292.36264  273.00000   22.50189             15.73966
870.05426   1415.38372  258.00000   27.41887             12.42045
874.84648   1637.30064  469.00000   26.90402             22.46733
884.95677   1234.31124  347.00000   42.18352             10.92165
881.49650   312.62238   286.00000   27.23036             13.75212
883.48582   669.98936   282.00000   27.17317             14.53867
879.63806   1588.74627  268.00000   22.68536             15.11086
884.81633   599.11905   294.00000   25.86195             14.69689
891.84766   947.77778   1431.00000  48.64609             37.80260
892.63786   1095.91770  243.00000   27.71158             11.23055
889.25389   1460.39378  193.00000   24.33929             10.86820
891.64557   1306.40928  237.00000   26.61427             11.69960
894.06429   1277.97857  140.00000   17.44715             10.39687
908.11097   613.02350   766.00000   35.95567             27.43932
918.97943   1041.20800  875.00000   60.90279             19.93896
905.60976   1346.67944  287.00000   26.36347             13.92395
908.92373   391.47458   236.00000   28.75561             10.78267
912.51938   1445.27132  258.00000   24.15623             14.00352
915.48302   451.66415   265.00000   21.47152             16.01422
918.30798   1170.93916  263.00000   27.22752             12.57515
915.15385   1612.64469  273.00000   29.96906             11.91295
918.84762   1242.46667  105.00000   13.84409             9.76629
933.62344   978.69606   964.00000   48.50845             28.03667
925.62441   1484.94836  213.00000   20.59607             13.37996
924.22275   1509.95261  211.00000   22.30232             12.30476
924.00521   1218.82812  192.00000   25.09454             9.97285
927.29747   132.24051   316.00000   23.55525             17.35042
925.54118   1311.97059  170.00000   18.96314             11.52107
930.23279   1671.77705  305.00000   27.02317             14.83441
928.47857   1124.04286  140.00000   17.51915             10.35994
931.32870   1135.01852  216.00000   19.36592             14.61244
933.98561   1221.20863  139.00000   15.91427             11.20477
944.77374   693.56983   358.00000   32.17784             14.58714
940.54425   1545.26991  226.00000   18.98730             15.49258
943.02548   1572.69745  314.00000   24.77559             16.42997
945.46474   308.90385   312.00000   35.43032             12.24164
944.57912   1007.74411  297.00000   28.24056             14.45170
948.91083   1119.59873  157.00000   21.71639             9.91624
948.82403   1345.01717  233.00000   22.76497             13.13068
950.81379   1472.87586  145.00000   24.28922             7.86907
950.92340   1149.75319  235.00000   28.85247             10.62947
949.48739   1407.38235  238.00000   21.56443             14.15978
950.05769   1303.28846  104.00000   14.57849             9.17807
967.11935   410.43342   796.00000   43.38633             24.71264
954.72816   1184.09709  103.00000   17.88843             7.47235
953.38719   240.57939   359.00000   33.08602             14.04597
959.05063   1316.47679  237.00000   23.64786             12.93685
955.17647   1238.44118  170.00000   16.19024             13.40606
961.58074   1762.24363  353.00000   31.40229             14.84053
958.16538   1516.33077  260.00000   27.97526             12.65385
962.22963   1633.07778  270.00000   26.33121             13.21087
964.58427   1099.03371  267.00000   28.94905             11.91389
967.04918   1611.58033  305.00000   29.76414             13.19910
963.86585   985.13415   82.00000    12.24147             8.55455
973.78947   1522.60324  247.00000   23.82270             13.34941
967.87069   1552.12931  116.00000   13.84470             10.67689
970.31013   160.22785   158.00000   17.04641             11.89882
973.79668   1182.68050  241.00000   21.69341             14.71830
972.80193   1342.27536  207.00000   21.38005             12.49036
976.26174   1122.25503  149.00000   20.18104             9.52203
991.22323   586.61959   439.00000   35.41381             16.22303
985.24583   1067.57917  240.00000   24.27837             13.02664
981.94304   1149.98734  158.00000   15.66254             12.87909
984.17089   1247.10759  158.00000   17.17971             11.73990
990.88636   1233.84091  220.00000   24.87988             11.61886
988.03687   1415.26728  217.00000   22.05660             12.75399
983.33333   1203.11905  42.00000    9.22877              6.11528
988.24468   1571.03191  188.00000   19.18999             12.55303
993.15385   1266.76331  169.00000   19.89246             10.89963
998.87931   1457.10345  232.00000   30.12188             10.15700
1001.75188  1201.61654  266.00000   34.84907             10.06491
994.76190   1371.09524  168.00000   19.91652             10.98025
991.83226   1592.01935  155.00000   15.83774             12.49569
1002.31928  724.60542   332.00000   28.86662             16.67965
998.62879   1163.48485  132.00000   17.01508             10.18198
1004.80328  1480.51803  305.00000   28.50808             13.86029
1000.93382  1578.18382  136.00000   16.93035             10.43972
1000.78417  1297.01439  139.00000   15.64467             11.52130
1009.69600  1050.21600  250.00000   29.94419             10.80741
1008.13613  1445.70681  191.00000   21.86546             11.33126
1007.82486  1537.00000  177.00000   16.92960             13.51603
1012.60753  18.65860    372.00000   26.19887             18.80973
1016.10247  1002.51237  283.00000   28.90364             12.80069
1007.22034  1264.50000  118.00000   17.26306             9.00412
1009.87302  1649.05820  189.00000   19.65763             12.38090
1014.40306  1164.94898  196.00000   23.25722             10.83699
1016.18935  1293.71006  169.00000   21.11008             10.22220
1014.53774  1574.05189  212.00000   19.22727             14.37178
1015.74302  1254.92179  179.00000   22.04442             10.66482
1019.39362  220.60284   282.00000   24.71020             14.63524
1019.19070  1631.75349  215.00000   31.48608             8.80398
1022.39149  1231.74894  235.00000   21.98109             14.30045
1033.86842  1695.99868  760.00000   39.30548             25.30242
1029.31148  1816.89344  244.00000   21.24926             14.68737
1031.15060  917.99398   166.00000   16.51356             12.81937
1033.66222  1371.90222  225.00000   23.50070             12.19603
1030.81325  1468.18072  166.00000   15.49752             13.63905
1036.79570  1142.78495  186.00000   29.58735             8.72508
1035.80690  1506.08966  290.00000   25.54661             14.66490
1030.23232  1335.93939  99.00000    13.08419             9.64851
1028.44643  1347.07143  56.00000    11.51570             6.26586
1034.00613  1529.74233  163.00000   16.69412             12.45746
1035.07424  1729.86026  229.00000   22.32158             13.16876
1035.73545  1201.37566  189.00000   22.85976             11.03437
1036.11600  1409.00800  250.00000   26.31546             12.45344
1038.31206  1122.35461  141.00000   16.73307             11.05538
1038.42128  1169.01277  235.00000   27.05453             11.17375
1041.44828  1329.00000  174.00000   17.12733             13.13030
1040.11159  1634.18884  233.00000   19.61965             15.20613
1046.34226  1314.90476  336.00000   25.30294             17.03159
1045.08081  1358.53535  198.00000   21.26071             11.87217
1048.72281  927.66316   285.00000   26.51820             14.33191
1046.64894  1446.93085  188.00000   18.71759             13.20973
1044.61170  1745.15957  188.00000   19.83136             12.15081
1059.72727  1261.25152  330.00000   39.35881             10.94130
1052.63497  1084.26687  326.00000   35.37609             13.05145
1052.52381  1288.36797  231.00000   21.84007             13.85346
1053.53448  1733.79741  232.00000   18.72515             16.27574
1055.01198  1373.70060  167.00000   15.76512             13.49519
1063.97122  1136.85252  278.00000   38.92363             9.49590
1060.90040  1656.46614  251.00000   24.51049             13.10573
1064.32661  1596.02823  248.00000   28.56795             11.50979
1064.72093  1350.66860  172.00000   18.26482             12.13290
1065.30000  1385.04737  190.00000   18.73247             12.98249
1074.40461  1624.63487  304.00000   25.13938             15.46461
1070.74534  1214.41615  161.00000   17.23448             11.99934
1073.64744  1100.69231  156.00000   15.72480             12.80209
1075.16592  1426.51121  223.00000   20.11718             14.62736
1075.04167  1459.64286  168.00000   18.45684             11.58983
1078.76000  1337.85600  250.00000   23.75902             14.37386
1075.75862  1201.41379  145.00000   14.55486             12.90768
1080.70787  288.24345   267.00000   21.03650             16.21873
1077.88053  1509.97345  226.00000   19.62297             14.83509
1086.27010  1561.81672  311.00000   30.59995             13.36392
1078.22886  1710.42289  201.00000   17.43285             15.01105
1081.40097  1492.57488  207.00000   18.63193             14.23901
1090.24542  1059.88152  709.00000   41.60881             23.16527
1090.27602  1242.95928  221.00000   32.25703             9.47746
1088.48544  1715.88350  206.00000   21.58173             12.64867
1090.64607  1482.25281  178.00000   17.98382             12.62174
1092.14062  1779.61719  256.00000   24.88160             13.30865
1090.02239  1204.30597  134.00000   21.04936             8.85459
1100.37982  1414.19585  337.00000   40.65521             11.33339
1101.08915  1209.49225  258.00000   36.44010             9.29568
1097.02304  1447.47465  217.00000   20.67846             13.41212
1101.72245  1506.24082  245.00000   23.40098             13.78719
1099.21661  1308.74729  277.00000   27.95197             12.76013
1104.86380  1195.35484  279.00000   25.55097             14.89863
1105.11380  1691.50363  413.00000   31.73792             16.71998
1112.41304  1289.48696  230.00000   28.81767             10.84721
1110.05517  1163.38621  290.00000   33.34041             11.66054
1110.03887  1660.30035  283.00000   20.78983             17.65504
1111.18959  1850.60967  269.00000   26.35819             13.17605
1111.44041  1397.01554  193.00000   18.50317             13.39619
1113.42915  1126.90283  247.00000   29.83343             10.77495
1115.84928  120.60870   345.00000   29.95581             14.88462
1114.97967  1315.78049  246.00000   20.77735             15.58337
1121.17982  956.73246   228.00000   23.72330             12.50537
1123.45981  1547.17042  311.00000   24.76096             17.16946
1128.85849  1133.91981  212.00000   22.29386             12.76767
1127.02183  1247.81659  229.00000   21.19089             13.90700
1128.68379  1318.28854  253.00000   19.10418             17.37848
1131.69655  1287.93793  145.00000   17.09774             11.02636
1135.52036  1060.97285  221.00000   18.89477             15.01917
1137.74908  1016.23247  271.00000   23.77747             14.59387
1140.86296  1356.08889  270.00000   26.64261             13.23394
1138.41256  1727.42152  223.00000   20.61651             13.82120
1139.53448  1668.69397  232.00000   22.25888             13.52612
1140.80347  1149.73988  173.00000   18.25932             12.10244
1141.25490  1369.39869  153.00000   16.92290             11.53879
1141.24103  1555.01026  195.00000   19.68728             12.73288
1143.83857  1580.20628  223.00000   21.58101             13.21895
1145.52632  1652.71053  228.00000   20.61326             14.09944
1151.38516  332.44876   283.00000   27.05768             13.74926
1153.54008  1727.24895  237.00000   17.71977             17.32139
1153.11688  1762.40260  231.00000   20.68876             14.36638
1156.16554  1452.91892  296.00000   26.66840             14.62261
1156.33803  1106.24648  142.00000   18.03612             10.05392
1158.39773  1266.68182  264.00000   25.87071             13.04344
1160.53158  1385.11579  190.00000   29.60039             9.09408
1158.28251  1311.41256  223.00000   31.22657             9.85204
1161.62791  1393.44961  129.00000   16.14977             10.23895
1167.08787  932.08787   239.00000   25.21569             12.13753
1163.80769  1332.34615  182.00000   21.32576             10.87894
1168.97543  1562.35135  407.00000   30.77698             18.90729
1165.83122  1215.09705  237.00000   24.28947             12.86335
1168.56485  1959.48954  239.00000   20.96219             14.73386
1168.55431  1731.66667  267.00000   22.31664             15.31176
1171.19444  1005.79630  216.00000   18.07327             15.32171
1170.26699  1648.06796  206.00000   19.29767             13.70058
1179.33828  164.38872   337.00000   35.61315             12.44100
1181.08980  45.48571    245.00000   19.33749             16.21748
1185.03883  1646.42718  206.00000   20.90700             12.58262
1186.07772  1449.12953  193.00000   18.96657             13.01205
1186.48971  1765.75309  243.00000   20.79613             14.97462
1192.73375  1055.72136  323.00000   26.24413             15.89408
1188.69375  1273.43750  160.00000   15.04294             13.65456
1194.02973  1309.05405  370.00000   22.79654             20.76165
1190.46000  1147.44000  50.00000    9.38369              6.77814
1196.89299  1077.23616  271.00000   22.91204             15.15722
1196.71698  1144.90566  53.00000    8.91046              7.73686
1203.91628  1268.32558  215.00000   22.13252             12.62957
1201.55556  1125.60185  108.00000   13.38628             10.39229
1212.15663  1346.42169  249.00000   28.20343             11.52941
1204.20207  1399.84456  193.00000   20.04554             12.71271
1216.97173  923.66431   283.00000   37.94792             9.71710
1210.71942  1588.16547  278.00000   21.41532             17.38941
1218.30556  1331.70370  324.00000   29.07675             14.36008
1217.11069  1208.70992  262.00000   26.53867             14.05511
1213.95062  1416.33333  162.00000   16.48610             12.63238
1222.46729  1785.55763  321.00000   28.84995             14.60709
1218.55510  297.47755   245.00000   24.38131             12.84670
1221.62162  1373.68726  259.00000   25.31046             13.06369
1217.38816  1433.00658  152.00000   15.14347             12.83297
1221.25188  1000.35338  266.00000   22.93913             15.11613
1225.24701  1024.24701  251.00000   24.30066             13.33014
1226.67708  1155.55729  192.00000   28.93189             8.70201
1230.41772  1277.42194  237.00000   21.52015             14.13027
1233.39474  1312.39850  266.00000   28.63149             12.18594
1229.31973  1196.65306  147.00000   19.33777             9.79583
1233.75618  104.84806   283.00000   25.75646             14.23248
1243.81919  1612.62731  271.00000   28.75081             12.35348
1243.60584  1469.72628  274.00000   22.83329             15.62261
1243.17447  94.97872    235.00000   19.67921             15.33222
1248.04036  1173.10314  223.00000   28.40642             10.32826
1252.28103  916.39138   580.00000   34.51013             22.69890
1246.73568  1575.86344  227.00000   19.88392             14.69955
1252.00000  1127.40260  231.00000   20.80023             14.89515
1249.45771  1401.81095  201.00000   18.36620             13.99690
1252.21405  1698.15385  299.00000   30.30709             12.64571
1262.30256  1020.81538  390.00000   37.41942             14.32059
1253.93137  1327.16013  306.00000   31.03064             12.69293
1257.62458  1962.47176  301.00000   24.56394             15.67167
1268.44128  1500.59564  596.00000   44.22003             18.03608
1259.97403  457.71861   231.00000   19.70998             15.33200
1268.51582  220.58544   316.00000   32.62835             12.77573
1265.15470  1132.98343  181.00000   19.46201             12.21460
1264.31724  1368.09655  145.00000   14.91358             12.51943
1265.94872  1231.45788  273.00000   30.66222             11.46645
1269.73303  1154.42534  221.00000   25.53094             11.42159
1275.27407  514.27407   270.00000   23.73866             14.84731
1274.91489  1363.61702  94.00000    13.25825             9.08417
1277.86275  1131.00980  102.00000   12.78902             10.30042
1288.96350  916.43431   274.00000   23.67189             14.99940
1288.46875  1928.77083  288.00000   24.94917             14.79168
1293.21862  168.60729   247.00000   18.83232             16.81737
1290.32075  1123.65094  318.00000   37.81655             11.31919
1292.79221  1331.23377  154.00000   22.96056             8.87872
1299.03804  1345.42391  184.00000   20.63930             11.47735
1306.18317  1334.59406  202.00000   28.38288             9.55396
1302.72260  29.17123    292.00000   21.46556             17.61213
1304.88261  1187.65217  230.00000   23.24032             12.69272
1302.03043  1376.59565  230.00000   23.76915             12.71686
1311.15328  1567.26642  274.00000   19.64754             18.70933
1314.46506  1169.75422  415.00000   27.56638             19.97602
1314.81338  1134.35211  284.00000   27.19362             13.75008
1317.40800  1277.44800  250.00000   20.59657             15.89926
1317.65986  1263.00680  147.00000   16.02876             12.11071
1318.97241  1396.10345  145.00000   16.23220             11.52394
1318.94737  1408.40000  190.00000   16.36795             14.89231
1320.66667  1293.85348  273.00000   22.96817             15.71860
1334.92931  912.17738   778.00000   38.10664             28.35671
1331.50296  195.71598   338.00000   26.99810             16.15497
1338.50502  287.08361   299.00000   25.06190             15.22549
1340.98712  105.30472   233.00000   19.80575             15.07163
1337.81944  1894.93056  144.00000   16.83953             11.03773
1340.78659  1907.76829  164.00000   15.49658             13.89596
1350.24438  1320.83146  356.00000   34.95101             13.23535
1347.27052  43.03647    329.00000   27.68751             15.80937
1356.82530  932.91566   332.00000   30.92993             15.49317
1353.52874  1060.29195  435.00000   25.04672             22.83499
1350.98537  1892.92683  205.00000   18.91731             13.99572
1355.63265  1002.26531  294.00000   26.61916             14.12765
1357.93160  462.96743   307.00000   24.70892             16.34271
1353.92265  1925.03315  181.00000   17.27122             13.39665
1354.66421  105.80074   271.00000   29.76677             12.53666
1354.97500  1420.03750  160.00000   15.60900             13.02024
1359.85253  1369.97696  217.00000   20.50910             13.62963
1369.63043  1024.81401  414.00000   25.43797             22.10006
1365.28324  1435.71098  173.00000   19.73689             11.22638
1371.13534  1159.88346  266.00000   21.42938             16.59425
1371.76900  224.65046   329.00000   30.72344             13.76431
1376.38200  1259.64000  500.00000   38.37680             17.27416
1374.14019  1385.31776  107.00000   13.31492             10.20527
1379.29360  682.95640   344.00000   29.67524             15.07866
1376.24047  1179.20235  341.00000   28.45646             15.40703
1384.80952  1357.24176  273.00000   26.93259             13.42156
1386.61244  1956.01435  209.00000   20.44396             13.07474
1388.56481  1379.74074  216.00000   22.24036             12.53446
1402.85039  1168.45013  762.00000   46.49232             21.23652
1394.44568  216.18384   359.00000   33.52782             13.87608
1397.11150  129.89895   287.00000   20.81209             17.69899
1404.18904  1007.42603  730.00000   34.32732             28.22746
1399.24706  30.52941    255.00000   21.27786             15.32561
1399.43333  532.28333   240.00000   18.88496             16.28505
1398.57143  1260.70677  266.00000   21.38276             15.91509
1399.99259  1406.79259  135.00000   15.67565             11.13351
1405.00412  252.15226   243.00000   18.45245             16.84815
1407.05072  1413.53623  138.00000   17.33131             10.39641
1409.16981  160.32390   318.00000   27.21107             15.00722
1406.83158  1918.09474  190.00000   19.05710             12.75593
1427.70881  277.75862   261.00000   20.32052             16.39335
1431.93827  1223.28807  243.00000   21.59497             14.36349
1430.61979  1979.03646  192.00000   17.51532             14.03731
1432.28322  1203.13986  286.00000   23.06541             16.43590
1431.15086  1463.71121  232.00000   24.55699             12.18028
1438.89702  1336.36043  369.00000   38.30358             13.47354
1434.44578  1483.14056  249.00000   22.83446             13.92837
1447.87419  1438.37957  930.00000   38.85602             31.36595
1444.27839  183.12454   273.00000   24.26045             14.72212
1455.70840  1275.56775  583.00000   37.68164             21.48113
1456.26537  1297.56634  309.00000   32.89349             12.58829
1457.36863  1165.77123  1001.00000  46.85798             27.72173
1456.38589  1322.28216  241.00000   23.27113             13.28125
1455.42574  1384.37129  202.00000   22.70684             11.38031
1462.82237  165.94079   304.00000   20.96330             18.81993
1470.70916  1258.36255  251.00000   23.79501             13.82295
1476.67397  694.10949   411.00000   34.36577             15.76383
1477.62437  1186.44162  197.00000   22.91712             11.04610
1482.19118  265.37647   340.00000   28.30661             15.43034
1478.44366  103.47535   284.00000   21.53063             16.98813
1479.93182  1386.62273  220.00000   22.64290             12.52205
1482.50394  1857.50394  254.00000   19.67055             16.48950
1482.27477  413.72072   222.00000   21.14948             13.54240
1482.55396  444.42446   139.00000   14.07241             12.73930
1504.12896  757.80769   442.00000   40.18949             18.46660
1499.50311  1217.44720  322.00000   25.15239             16.39901
1502.39552  551.82090   268.00000   25.85068             13.73558
1496.85787  2017.19289  197.00000   17.91931             14.03441
1503.27913  1325.13279  369.00000   32.72107             16.17044
1498.11842  384.25000   152.00000   15.49460             12.57225
1505.81173  1748.09568  324.00000   29.83638             14.38930
1496.42000  407.10000   50.00000    8.72293              7.30809
1505.31679  491.57634   262.00000   28.45616             12.27415
1502.14685  1369.43357  286.00000   25.65254             14.46748
1500.89855  443.71739   138.00000   17.45632             10.30728
1505.69110  369.78010   191.00000   18.53091             13.26418
1520.90852  343.02524   317.00000   36.05846             11.88734
1515.57434  242.18950   343.00000   24.37647             18.42310
1513.75000  2040.68605  172.00000   16.81538             13.06747
1517.56314  281.76792   293.00000   19.65866             19.03788
1514.97462  1897.79695  197.00000   17.67137             14.20327
1522.58484  471.67870   277.00000   24.87625             14.65897
1525.85965  380.91228   228.00000   23.52609             12.52285
1528.63522  1383.66981  318.00000   35.79090             11.56957
1529.55016  435.31068   309.00000   22.06205             18.14804
1530.30888  567.30502   259.00000   24.01701             14.08408
1530.16484  131.16117   273.00000   21.39485             16.55858
1537.83972  384.64460   287.00000   39.08531             9.84887
1537.94332  2034.80972  247.00000   21.04178             15.40221
1541.82484  230.66561   314.00000   26.56141             15.48148
1539.14527  312.75000   296.00000   29.94335             12.73658
1558.09184  2027.71939  196.00000   19.12653             13.12597
1562.68710  311.57419   310.00000   20.55912             19.28137
1561.35111  2011.87556  225.00000   19.08602             15.05461
1567.05172  404.64655   348.00000   27.72017             16.33235
1567.26632  290.51175   383.00000   28.53844             18.04064
1573.35461  2020.80851  141.00000   16.07242             11.27166
1583.32000  1434.00286  350.00000   30.56275             14.92706
1587.35119  558.41667   336.00000   27.72212             15.79842
1588.88506  652.66284   261.00000   25.88890             13.07725
1592.34286  1166.95714  280.00000   28.84209             12.89278
1586.30144  1884.20574  209.00000   17.11130             15.70910
1588.10345  430.37931   174.00000   16.68513             13.34106
1596.01544  456.72973   259.00000   27.67306             12.07611
1599.05105  157.89189   333.00000   27.51708             16.05281
1593.56970  2030.59394  165.00000   18.07667             11.64512
1599.16923  2006.13462  260.00000   19.22064             17.29305
1609.94461  270.96501   343.00000   26.79466             16.68839
1605.88550  2023.70992  131.00000   14.53982             11.51366
1614.69582  554.22814   263.00000   27.06570             12.66510
1612.01515  397.51515   264.00000   19.25655             17.95860
1612.11184  384.17105   152.00000   16.87504             11.82933
1616.33808  853.88256   281.00000   23.61620             16.29438
1628.60705  344.79597   397.00000   37.10928             14.20671
1625.11321  2039.11321  159.00000   16.85005             12.09782
1628.38496  1895.04425  226.00000   18.56382             15.51333
1633.28012  303.69277   332.00000   21.46189             19.89357
1646.72474  1152.64111  287.00000   34.54746             11.83958
1642.74315  375.15753   292.00000   22.35953             16.74373
1649.99615  2010.55385  260.00000   24.26677             13.74942
1659.04913  182.89017   346.00000   27.71532             16.45170
1659.91154  397.85000   260.00000   20.18940             16.48947
1671.02907  557.59884   344.00000   35.47868             12.52999
1667.41500  1103.38500  400.00000   27.88743             18.80543
1680.75188  367.30075   266.00000   25.05817             13.69601
1680.58239  2025.61932  352.00000   27.92543             16.38507
1684.74170  258.10332   271.00000   23.68724             14.91455
1688.61838  458.81616   359.00000   35.53258             12.98605
1695.76947  1043.69782  321.00000   34.56604             12.31716
1692.67849  523.72104   423.00000   29.48513             19.80645
1696.73944  402.47535   284.00000   22.26783             16.36226
1694.12245  1164.08163  49.00000    8.78946              7.05307
1700.46512  1895.05814  172.00000   17.99983             12.20475
1713.44503  927.22775   382.00000   44.71335             11.63248
1730.84532  424.34532   278.00000   30.42308             12.00844
1731.95652  354.92029   138.00000   19.15936             9.33616
1745.49817  568.46154   273.00000   29.50121             11.83088
1753.75221  1907.83628  226.00000   19.56223             14.90904
1756.78547  354.12457   289.00000   22.60416             16.49614
1763.60000  2039.22857  175.00000   21.25164             10.54895
1768.86475  2009.24180  244.00000   20.41028             15.38241
1771.92361  432.00000   288.00000   24.28021             15.60770
1788.84694  1895.91837  196.00000   21.11048             11.95522
1794.08746  559.73761   343.00000   28.71422             15.96265
1801.57563  1366.55042  238.00000   23.38854             13.22603
1805.17747  435.67577   293.00000   21.45692             17.73819
1818.81164  1170.39041  292.00000   27.69251             13.54173
1820.35769  13.31923    260.00000   21.12732             15.88580
1819.77912  1704.53012  249.00000   19.15488             16.58924
1822.73548  1719.18710  155.00000   16.64265             11.90287
1837.62974  28.55102    343.00000   30.81342             14.67492
1832.98529  1969.82353  204.00000   21.18226             12.26450
1834.39171  2027.53456  217.00000   19.86226             13.95494
1842.81749  1158.97719  263.00000   25.51173             13.33918
1847.28947  1272.61184  152.00000   15.44668             12.81718
1850.70565  1042.30242  248.00000   21.96153             14.67508
1854.33508  1972.93717  191.00000   20.69888             11.82509
1857.79878  1735.39024  164.00000   20.78854             10.12945
1857.82034  505.41356   295.00000   25.91246             14.82291
1857.23200  1265.73600  125.00000   13.46926             12.07554
1872.02392  1997.50239  209.00000   22.65094             11.76229
1883.95588  1162.34191  272.00000   22.69649             15.49470
1891.48869  957.22624   221.00000   23.26762             12.40075
1905.32584  1132.35206  267.00000   22.67398             15.08698
1905.67742  189.34767   279.00000   20.28660             17.85631
1909.80836  1194.37282  287.00000   27.48360             13.45324
1917.65942  1395.48551  276.00000   32.33030             11.44716
1921.22685  1140.62037  432.00000   34.28121             16.34021
1915.63218  1239.36782  174.00000   16.45614             13.78295
1920.13846  2022.84103  195.00000   22.28448             11.19357
1931.38376  1025.83026  271.00000   23.46569             14.75175
1928.85484  1233.27957  186.00000   17.35186             13.78298
1935.76216  968.47297   370.00000   33.27888             15.74766
1938.59921  1084.15476  252.00000   21.90934             14.79851
1939.18539  932.72472   178.00000   19.52591             11.90548
1946.32806  1411.03162  253.00000   24.65158             13.14499
1949.40136  1159.45918  294.00000   21.85952             17.59308
1950.50505  1451.87879  99.00000    13.25504             9.54880
1951.21579  931.71579   190.00000   18.18738             13.83447
1957.68852  1089.17213  244.00000   19.72243             15.94096
1959.11441  1142.08475  236.00000   18.40075             16.72924
1960.32900  1218.20779  231.00000   18.94992             15.65543
1966.14350  1032.03139  223.00000   18.19824             15.72504
1969.99600  1459.73600  250.00000   20.49066             15.63411
1971.57453  1050.01863  322.00000   22.90499             18.01345
1969.20270  1258.43919  148.00000   15.14913             12.44026
1976.97692  739.86538   260.00000   23.19708             14.77618
1975.33702  1101.77348  181.00000   17.01492             13.57639
1984.21101  1471.09633  218.00000   21.23060             13.15527
1983.48815  84.36967    211.00000   23.72991             11.51925
1985.38947  1088.92105  190.00000   18.94306             12.85965
1986.68826  132.18219   247.00000   25.78681             12.34455
2006.79661  415.74153   236.00000   22.23374             13.62443
2009.60902  1027.45865  266.00000   23.34052             14.57657
2012.54044  867.48162   272.00000   25.20750             13.97762
2014.82979  1079.91489  235.00000   21.09658             14.32174
2021.39256  746.13223   242.00000   21.69780             14.29491
2025.73288  1168.85274  292.00000   28.01211             13.42143
2030.40794  992.63899   277.00000   21.68075             16.41163
2031.70787  1506.71910  178.00000   18.89010             12.09314
2036.33051  1026.43220  236.00000   21.89422             13.83589
2039.30481  1498.10695  187.00000   20.59984             11.83073
2040.12994  1516.92090  177.00000   17.57075             13.29565
2041.28387  1480.21290  155.00000   14.96158             13.59677
2044.07955  833.39773   88.00000    13.88987             8.51113