# Filename: Nuclei_416_ctrl_60x_007.npz
# Voxel size (nm): (108, 108)
# Area quantity: voxels
# Num nuclei detected: 1566
Y           X           AREA       MAJOR_AXIS_LENGTH    MINOR_AXIS_LENGTH
23.77606    1065.64093  259.00000  20.40892             16.21884
28.06081    1170.55068  296.00000  23.50867             16.14123
34.99301    913.94406   143.00000  15.29024             11.99083
40.21560    980.80275   218.00000  20.23603             13.79799
40.50584    1127.15953  257.00000  19.61718             16.74029
46.32195    794.17073   205.00000  18.17094             14.46086
58.27841    406.03409   176.00000  16.02789             14.08199
67.26667    674.17778   225.00000  19.48217             14.88898
74.12155    624.79558   181.00000  17.18049             13.61072
78.89167    720.61667   120.00000  14.59585             10.55884
83.25103    524.36214   243.00000  23.63936             13.34999
82.89848    1096.71066  197.00000  19.15170             13.52539
82.04630    585.91204   216.00000  19.64746             14.41079
85.85185    815.85714   189.00000  18.55029             13.05149
96.57778    970.10222   225.00000  19.23744             14.92691
103.16393   716.11475   183.00000  18.73512             12.54868
105.24917   655.27575   301.00000  21.45487             17.98755
108.71889   603.15207   217.00000  18.31757             15.19438
111.25463   560.76852   216.00000  20.16356             13.68085
113.47847   841.14354   209.00000  18.52165             14.45332
116.47451   1136.16471  255.00000  20.40520             16.23115
115.67725   895.48148   189.00000  19.50492             12.99419
114.88415   823.88415   164.00000  16.86756             12.41291
115.73485   690.76515   132.00000  14.19105             11.92911
120.56410   674.73932   234.00000  19.47713             15.36010
117.93617   868.65106   235.00000  19.36660             15.50436
120.72691   537.26908   249.00000  19.39322             16.64443
126.85714   1102.03571  140.00000  19.20303             9.82908
130.09626   935.97861   187.00000  16.23558             14.73451
131.32919   978.63354   161.00000  16.00807             13.06774
133.73377   806.79221   154.00000  14.09430             13.95888
134.54198   664.83206   131.00000  13.80755             12.15618
148.00000   644.42616   237.00000  19.95433             15.28351
149.12544   984.81533   287.00000  20.86626             17.82719
146.00725   1075.49275  138.00000  14.78848             11.89912
153.87831   863.63492   189.00000  18.17509             13.32044
153.97368   850.15789   190.00000  17.74398             13.65222
152.12381   1119.38095  105.00000  12.53655             10.94928
166.23019   421.40000   265.00000  21.13185             16.23318
166.09160   364.99237   131.00000  15.38248             11.04363
170.34762   1124.82857  210.00000  17.59604             15.28818
176.68868   780.50000   106.00000  14.47432             9.39891
179.37815   374.36975   119.00000  15.03409             10.15286
186.76836   396.65537   177.00000  16.16356             14.04845
187.71282   685.60000   195.00000  16.61752             15.20387
189.73377   848.49351   154.00000  16.40488             12.29210
190.63415   924.26829   41.00000   7.99174              6.54886
200.48864   837.35795   176.00000  24.76611             9.47467
202.13793   1141.53793  145.00000  15.27477             12.06343
223.31263   675.93587   499.00000  29.22118             22.63937
221.19876   858.48447   161.00000  20.10383             11.00628
218.82090   1077.67164  134.00000  15.32072             11.21532
222.94538   1157.59244  238.00000  22.60440             13.55535
219.37736   931.20755   106.00000  13.12090             10.46679
224.90556   417.93889   180.00000  18.95275             12.15693
227.76684   1023.96891  193.00000  18.53659             13.36172
228.84746   1092.05650  177.00000  16.21555             14.15171
230.43750   898.32386   176.00000  16.81365             13.53166
230.67059   1005.77059  170.00000  15.07829             14.44816
231.26866   437.57463   134.00000  15.19198             11.28287
233.64583   846.88542   96.00000   11.76994             10.41241
238.03676   877.75000   136.00000  14.09321             12.31001
243.11348   612.53546   282.00000  20.08182             18.06012
241.72289   963.62651   166.00000  15.33954             13.88019
242.17742   923.70161   124.00000  13.28078             11.91973
242.76821   1050.94040  151.00000  15.68515             12.27283
245.55721   1069.28856  201.00000  17.95427             14.28985
257.16013   1038.80719  306.00000  25.62360             15.61279
253.43210   1172.50617  162.00000  14.72186             14.05395
251.32812   859.25000   64.00000   10.93110             7.48588
256.57143   559.12000   175.00000  16.44335             13.58323
260.01717   776.12017   233.00000  21.73284             13.99561
259.52381   658.33333   147.00000  16.99523             11.26375
260.17500   1111.30625  160.00000  16.67388             12.29191
261.01562   503.25000   192.00000  18.61948             13.20585
262.02073   818.73057   193.00000  17.57064             14.33827
259.71875   908.43750   96.00000   11.86896             10.27779
262.94697   338.85606   132.00000  14.25508             12.21243
264.28926   145.85124   121.00000  13.19823             11.76555
266.29707   630.22176   239.00000  18.77717             16.42625
263.25000   843.58750   80.00000   12.02861             8.49647
270.55600   1186.16400  250.00000  20.42333             15.74315
266.95082   919.90164   61.00000   9.51090              8.15254
271.26316   904.26316   38.00000   7.72520              6.25763
276.50610   588.07927   164.00000  16.49392             12.91041
278.55405   371.36486   148.00000  18.71389             11.04010
276.06796   413.74757   103.00000  13.06598             10.10202
278.72269   1097.10084  119.00000  14.42766             10.51590
280.53723   612.34043   188.00000  16.39311             14.66020
284.39672   729.02295   305.00000  23.07608             17.09215
282.90909   701.69697   264.00000  21.40877             15.76541
278.91304   857.43478   69.00000   10.67797             8.29497
286.91085   770.07364   258.00000  24.05759             13.88306
285.66304   1199.82609  184.00000  18.67159             12.58127
288.12617   155.34112   214.00000  17.44560             15.73383
284.39394   1069.57576  66.00000   10.13334             8.24334
291.27461   883.61140   193.00000  19.06177             12.93869
290.99550   322.27928   222.00000  20.93084             13.60192
293.67917   754.54583   240.00000  18.54554             16.60670
295.82533   668.30131   229.00000  20.26386             14.43955
293.56250   916.66964   112.00000  12.46023             11.42389
299.37956   522.48175   137.00000  16.07230             10.94971
300.72826   1072.85870  184.00000  17.46409             13.54317
306.19118   1098.02941  272.00000  30.86239             11.72113
297.59259   901.07407   27.00000   6.42150              5.26541
306.54000   464.85200   250.00000  19.27492             17.15545
302.97163   963.03546   141.00000  16.00266             11.23297
304.44262   819.78689   183.00000  16.52929             14.10317
309.57438   1049.17769  242.00000  21.93769             14.11506
310.81132   413.60849   212.00000  20.07808             13.51866
308.33083   604.94737   133.00000  17.23277             9.91710
304.43182   903.25000   44.00000   8.00580              7.10416
309.13333   399.73846   195.00000  17.52701             14.71854
311.43636   536.32727   165.00000  20.76484             10.22595
310.57200   590.56000   250.00000  20.47879             15.62762
310.93506   926.89610   77.00000   10.98978             8.93978
322.60236   287.48819   254.00000  20.36129             16.01734
319.67832   754.25874   143.00000  15.68067             11.68847
319.16071   925.42857   56.00000   9.62555              7.54015
327.18889   998.88333   180.00000  19.20052             12.07643
327.29714   1283.77714  175.00000  20.18623             11.10162
328.19841   564.45635   252.00000  19.42798             16.53437
330.03620   350.82805   221.00000  17.35051             16.23149
331.04167   850.70833   264.00000  21.99438             15.40005
335.71080   1217.27875  287.00000  25.21795             14.58831
334.17431   615.14679   109.00000  13.96867             9.99126
333.24706   835.18824   85.00000   12.48015             8.69191
333.91034   980.23448   145.00000  15.30791             12.41235
338.40343   789.25322   233.00000  22.67551             13.21830
340.03681   1102.67485  163.00000  20.33293             10.31407
342.57925   397.11816   347.00000  23.86375             18.66330
339.12264   1115.60377  212.00000  17.89982             15.16247
339.63571   518.38571   140.00000  13.77985             13.11097
341.90260   598.72078   154.00000  16.74541             12.18727
342.04082   1069.78061  196.00000  17.22773             14.51110
345.41071   149.08482   224.00000  20.36981             14.31431
348.05405   923.56306   222.00000  25.69222             11.24731
344.42248   1044.65116  258.00000  20.67965             15.91008
349.62212   543.25346   217.00000  21.93424             12.81994
347.47853   1596.41718  163.00000  17.34625             11.96710
349.50510   613.74490   196.00000  17.86201             14.03162
347.51389   554.94444   72.00000   11.48725             7.99941
350.86818   1132.39091  220.00000  18.55269             15.24772
354.23111   884.19556   225.00000  19.63083             14.69360
350.65060   961.53012   83.00000   12.61290             8.35695
351.00000   992.35000   100.00000  13.00382             9.92676
353.47423   1090.80928  194.00000  16.35909             15.23269
354.00606   1265.44242  165.00000  16.96570             12.43026
354.89916   736.50000   238.00000  18.26386             16.71762
360.39151   628.40094   212.00000  23.45018             12.16585
361.11837   768.48163   245.00000  24.35155             13.13156
358.28000   451.57714   175.00000  16.54382             13.53063
363.29150   422.09717   247.00000  21.55266             14.61561
359.89706   1224.51471  136.00000  15.41859             11.28143
363.56680   1192.82591  247.00000  19.59220             16.14591
368.05517   989.81379   145.00000  16.57420             11.44956
369.06349   1576.03968  126.00000  15.82456             10.24316
370.75862   335.75369   203.00000  17.46846             14.82191
374.21622   808.68726   259.00000  23.27054             14.28175
369.01754   1043.97368  114.00000  15.86960             9.24138
373.07362   1054.09816  163.00000  18.55510             11.40046
371.81364   474.87727   220.00000  17.63407             15.96664
373.42781   1231.34759  187.00000  17.89544             13.36385
373.79330   1133.62570  179.00000  19.42374             11.81018
376.63507   519.25592   211.00000  17.62916             15.33345
379.56614   1264.94709  189.00000  19.33717             12.46334
379.47423   1076.06186  194.00000  18.03353             14.02349
380.88596   458.78070   228.00000  20.36712             14.30714
382.50739   945.22167   203.00000  19.85954             13.01700
380.41818   975.65455   165.00000  15.09696             13.98544
384.01389   1123.77778  216.00000  19.53870             14.18533
386.55605   658.21076   223.00000  21.50945             13.29047
384.12217   752.09955   221.00000  21.70035             13.06893
382.46512   1039.06977  86.00000   11.11436             9.88311
386.56216   692.90811   185.00000  16.31584             14.45203
387.79191   503.61272   173.00000  16.31563             13.58433
388.11194   1107.82090  134.00000  14.06662             12.33301
393.17672   399.42241   232.00000  24.52172             12.20879
387.41322   621.41322   121.00000  12.87025             11.96137
391.69036   335.09645   197.00000  20.52633             12.30955
389.23596   478.70787   89.00000   11.22218             10.22817
397.31022   767.22263   274.00000  24.41198             14.60825
394.84431   638.25749   167.00000  20.33724             10.60063
392.07143   607.12245   98.00000   11.85243             10.51017
400.70896   320.54478   268.00000  26.50869             13.54563
400.22297   805.88514   296.00000  21.75953             17.59307
399.42021   979.40426   188.00000  18.85831             12.74415
402.63670   717.30712   267.00000  20.62540             16.84225
401.02513   1149.36683  199.00000  21.14633             12.02160
398.71264   545.35632   87.00000   13.09282             8.48706
409.21585   925.21858   366.00000  25.29463             19.10182
403.45064   1232.48498  233.00000  19.80738             15.05478
403.82581   1113.96774  155.00000  14.42917             13.78990
404.67143   385.29286   140.00000  14.88161             12.09526
410.23394   1252.78899  218.00000  21.92671             12.80116
412.99291   240.67021   282.00000  19.56943             18.34980
415.71148   464.87955   357.00000  27.53108             16.94561
415.65500   364.37000   200.00000  18.16154             14.24583
417.70056   685.51977   177.00000  19.45291             11.59421
420.37410   658.01799   278.00000  24.58377             14.49627
421.78502   975.42997   307.00000  24.14631             16.33188
423.81081   1085.95608  296.00000  24.35515             15.50959
420.91667   216.46111   180.00000  16.45853             14.01282
419.99160   179.63025   119.00000  14.14920             10.78895
422.01554   567.72021   193.00000  21.53553             11.56558
423.39726   25.10959    219.00000  18.56082             15.06009
423.77439   961.78659   164.00000  18.36493             11.47280
421.12258   1143.81290  155.00000  15.32432             12.88072
425.16981   311.79623   265.00000  21.98238             15.38231
425.41784   390.29577   213.00000  22.21967             12.53461
428.42029   423.12319   138.00000  15.91384             11.07678
430.83898   934.43220   236.00000  17.41290             17.35270
433.42213   1257.86066  244.00000  21.64508             14.44041
429.07879   1506.05455  165.00000  17.10566             12.30328
430.07895   49.92632    190.00000  17.58173             13.82604
434.63274   9.62832     226.00000  18.45262             15.64143
431.11429   1155.81429  70.00000   12.81207             7.24303
432.25000   552.86842   76.00000   11.77231             8.24167
434.62245   788.26020   196.00000  16.17844             15.69467
437.94366   859.93662   284.00000  24.06379             15.16396
436.02235   1169.43575  179.00000  18.00117             12.75012
433.97857   344.89286   140.00000  15.82552             11.26774
437.92935   497.71739   184.00000  21.37726             11.15126
438.91083   1069.05732  157.00000  21.11892             9.78116
441.22072   590.45946   222.00000  20.90698             14.69579
434.90476   729.23810   42.00000   7.55095              7.07965
435.49231   1112.84615  65.00000   10.63749             7.82911
440.10323   466.80645   155.00000  16.42370             12.13879
440.29518   964.37349   166.00000  17.57284             12.04623
439.84444   1123.66111  180.00000  16.76546             13.84939
439.32026   1486.48366  153.00000  15.74506             12.38555
443.42202   274.18807   218.00000  22.28836             12.60249
446.45868   746.02479   242.00000  20.54851             15.01412
443.66480   762.53073   179.00000  16.94699             13.56108
444.50781   1141.41406  128.00000  15.08747             11.02267
446.57399   88.47085    223.00000  17.72514             16.08765
447.63793   355.17241   232.00000  21.72892             13.65226
448.77528   1233.57865  178.00000  20.39618             11.17124
448.77586   145.89080   174.00000  16.40260             13.53860
448.70681   1426.18325  191.00000  16.75414             14.53876
448.81313   781.52525   198.00000  17.12661             14.73158
449.95690   1457.05603  232.00000  21.32945             14.02739
456.21538   547.57308   260.00000  25.24319             14.70688
455.41558   704.58442   231.00000  22.18506             13.61538
448.96250   1131.17500  80.00000   11.11353             9.15298
451.50000   1176.00000  130.00000  14.63141             11.29800
456.05485   475.82278   237.00000  23.12321             13.81458
458.25592   228.34123   211.00000  20.42446             13.32164
458.05952   1280.13095  252.00000  23.84866             13.62733
454.01515   569.09091   66.00000   11.15642             7.64387
462.35586   729.33333   222.00000  27.40210             10.67060
460.48731   1068.23350  197.00000  20.59966             12.24360
459.54301   1165.12366  186.00000  20.86892             11.55255
460.61677   118.92216   167.00000  17.58323             12.18029
457.50000   562.36000   50.00000   8.16823              7.74638
464.22414   666.39655   232.00000  18.77878             15.80167
466.11475   1384.37705  183.00000  17.27905             13.63611
466.21528   684.19444   144.00000  16.81205             10.90910
464.60000   1000.63636  110.00000  12.35717             11.46723
468.31481   492.46296   216.00000  18.02579             15.33274
468.18033   855.66667   183.00000  17.61089             13.29760
468.02198   139.19780   182.00000  16.79213             13.84790
471.27049   58.52049    244.00000  21.66094             14.56203
470.59524   305.64762   210.00000  18.35035             14.58732
471.67039   775.53073   179.00000  16.57479             13.93573
474.32381   340.77460   315.00000  23.40188             17.24100
475.18750   694.21591   176.00000  18.47075             12.45995
473.92095   1227.41502  253.00000  18.48310             17.89543
477.52590   265.52590   251.00000  29.69585             11.32847
474.37129   425.32673   202.00000  20.19497             12.93594
474.12121   1034.85859  198.00000  17.91408             14.19579
478.51613   547.02688   186.00000  17.23016             13.80075
477.03205   739.08333   156.00000  16.43565             12.27456
476.02632   1004.35088  114.00000  13.43532             10.92731
478.67391   1245.25000  184.00000  16.09005             14.62489
478.87440   1370.76329  207.00000  20.76312             13.46797
481.99034   645.40580   207.00000  18.57492             14.24181
481.49697   718.60000   165.00000  17.30133             12.20410
484.27152   534.72185   151.00000  19.47099             10.00263
482.28125   1028.04688  64.00000   10.63239             8.02506
489.41833   1091.97211  251.00000  24.93617             13.08311
483.12500   1149.18750  80.00000   11.75382             8.69685
485.11475   1213.08197  122.00000  12.89813             12.22234
489.31250   995.89453   256.00000  18.29289             17.98102
486.29747   1162.38608  158.00000  18.47805             10.91632
488.59060   734.55034   149.00000  15.82005             12.05902
492.52535   1132.91705  217.00000  19.15754             14.61020
491.91216   1032.97297  148.00000  17.14099             11.37078
495.77612   1255.89552  201.00000  24.22563             10.83585
495.06303   600.73950   238.00000  20.55571             15.04875
495.01007   1299.20134  298.00000  22.06220             17.48072
495.77064   772.12385   218.00000  18.03464             15.45560
501.21166   970.83742   326.00000  23.50846             18.81206
496.89764   1173.19685  127.00000  15.81905             10.29609
498.51701   59.47619    147.00000  15.03253             12.63710
498.82716   795.81481   162.00000  15.75587             13.10960
499.56742   206.05618   178.00000  16.64767             13.67978
501.99261   558.69212   406.00000  29.17110             18.13855
501.09497   1147.27933  179.00000  17.79106             12.98501
501.55026   1209.82540  189.00000  20.60390             11.80211
501.37162   698.55405   148.00000  15.81943             11.94707
504.28436   813.13270   211.00000  24.10034             11.32567
505.13043   222.16667   276.00000  22.87336             15.88108
507.59603   636.19536   302.00000  25.74369             15.29060
503.63636   1342.84492  187.00000  21.81334             11.19438
505.33198   875.66397   247.00000  21.47681             15.33705
502.87671   120.31507   146.00000  14.62478             12.71648
505.34409   1012.31183  186.00000  18.04441             13.16491
501.91935   1160.30645  62.00000   10.13651             7.83083
504.79661   924.36441   118.00000  13.59489             11.11660
506.52874   1107.89080  174.00000  16.17416             14.03885
510.39556   844.51111   225.00000  20.84401             13.97966
511.27682   510.96540   289.00000  24.24203             15.74294
514.38298   730.50213   235.00000  21.26976             14.13279
514.10345   790.56158   203.00000  18.35126             14.17151
515.71098   400.44509   173.00000  15.94321             14.01532
519.59756   1075.78049  164.00000  20.99572             9.98110
519.95392   1306.47926  217.00000  20.37291             13.83112
517.96774   1585.38172  186.00000  16.52313             14.38014
517.46809   1604.97163  141.00000  17.73815             10.38389
519.77844   379.08383   167.00000  21.81375             10.68237
518.35758   1020.23030  165.00000  16.32261             12.90568
519.66065   1217.47653  277.00000  23.23051             15.74599
518.78652   1270.75843  178.00000  17.11139             13.30406
515.96104   1632.92208  77.00000   10.79604             9.08828
518.41837   697.73469   98.00000   12.69454             9.94595
519.42384   860.82119   151.00000  14.86529             12.98630
521.21809   887.21277   188.00000  16.14820             14.92554
528.95822   1349.86423  383.00000  32.86441             15.01416
520.17857   1613.25893  112.00000  14.81756             9.84885
523.10329   1100.54930  213.00000  17.43060             15.99948
521.34234   1060.99099  111.00000  12.42609             11.39482
524.44134   607.47486   179.00000  17.32223             13.39675
526.38028   997.63850   213.00000  20.10242             13.54300
527.88360   1194.26455  189.00000  17.77232             13.75575
528.00000   963.29825   228.00000  18.63034             15.95541
526.83333   1542.47778  90.00000   12.38193             9.43351
524.98824   1622.77647  85.00000   11.70333             9.28603
525.36735   1596.36735  49.00000   9.35469              6.63388
532.15341   697.88636   176.00000  18.57772             12.12862
531.12081   1635.85906  149.00000  14.83507             12.84446
532.93333   122.32444   225.00000  17.80247             16.23060
532.43290   755.04762   231.00000  21.48226             13.84756
536.25952   850.12457   289.00000  20.28993             19.14875
531.45600   1050.48800  125.00000  15.28604             10.48426
530.85246   579.22951   61.00000   11.07411             7.00182
533.93567   978.39181   171.00000  18.16040             12.14455
535.56875   1299.68125  160.00000  15.88368             12.85720
535.35943   1471.15658  281.00000  27.28883             13.47171
535.47778   1601.08889  90.00000   13.09727             8.97245
538.53125   778.42969   256.00000  20.96942             15.60653
542.15719   1267.60870  299.00000  24.64620             16.15210
538.08633   1519.24460  139.00000  14.60172             12.17798
537.73571   1571.94286  140.00000  15.64001             11.39637
539.31507   1613.24658  146.00000  15.28070             12.21697
539.04196   1040.88811  143.00000  14.03139             13.05113
540.87050   1437.77698  139.00000  14.71844             12.04195
541.80255   1059.17834  157.00000  15.36777             13.05543
537.77778   1190.70370  27.00000   6.09077              5.64082
543.99573   1000.34615  234.00000  18.83647             16.10823
544.80657   84.62774    274.00000  19.87070             17.86414
544.26036   1534.63905  169.00000  16.57887             13.04096
546.49438   679.80899   178.00000  17.05817             13.46434
550.03734   1287.60996  241.00000  24.94487             12.52626
547.67368   1506.44211  190.00000  18.24347             13.41278
550.46486   695.08649   185.00000  16.01423             14.94168
547.70492   1213.61475  122.00000  12.90716             12.05444
550.01036   53.14508    193.00000  17.69739             14.07595
549.78977   817.89205   176.00000  15.61565             14.96613
553.53333   345.27111   225.00000  20.16581             14.41433
547.34211   1193.84211  38.00000   7.66907              6.35512
551.18831   1459.53896  154.00000  15.55979             12.61425
551.28333   1549.59444  180.00000  15.31737             15.08038
547.91667   1601.29167  72.00000   10.01965             9.12389
552.49032   906.09677   155.00000  15.29135             12.97582
556.36946   579.93596   203.00000  19.01210             13.90024
558.89080   792.83046   348.00000  25.72481             17.70699
553.34146   1077.12195  123.00000  13.72539             11.47700
554.80117   1384.88304  171.00000  17.22803             12.71109
555.29508   1415.39344  122.00000  16.54641             9.87058
559.93258   748.73034   267.00000  26.03791             13.19561
556.78238   1564.43523  193.00000  19.02748             12.99544
564.76819   469.60647   371.00000  27.66259             18.07215
557.08130   1040.39837  123.00000  13.48253             11.64931
557.76190   1067.72381  105.00000  13.85465             9.67556
557.83333   1222.26042  96.00000   12.77511             9.75195
557.60550   1242.02752  109.00000  12.95750             10.72188
560.38776   1319.93878  245.00000  18.99414             17.73426
557.67619   1447.02857  105.00000  12.63726             10.70378
562.06780   311.62712   295.00000  22.88101             16.72727
558.49367   1188.37975  158.00000  17.74882             11.41120
557.51948   1473.00000  77.00000   10.43254             9.44637
559.62185   1212.69748  119.00000  12.83423             11.92699
562.58140   1368.53488  129.00000  14.61205             11.25902
566.66822   1107.81776  214.00000  21.18090             12.93233
568.28322   943.69231   286.00000  21.91155             16.72301
570.35922   985.97087   309.00000  25.78870             15.35589
563.50000   864.50000   66.00000   10.83317             7.70517
565.11180   1270.67702  161.00000  16.61789             12.56393
571.97411   1028.39806  309.00000  29.08803             13.97411
570.46705   685.41834   349.00000  22.19351             20.09719
567.69128   1500.97987  149.00000  15.57189             12.30751
574.85380   609.51462   342.00000  27.91456             16.22392
569.94500   777.23500   200.00000  17.27422             14.76852
567.79825   1449.84211  114.00000  13.57304             10.74683
566.77273   1466.82727  110.00000  13.48260             10.43976
570.26512   279.34884   215.00000  18.66743             14.79691
568.16176   726.19118   136.00000  15.95819             10.93740
569.19745   918.55414   157.00000  17.99148             11.32014
573.21461   1356.17808  219.00000  22.69251             12.86271
573.94958   574.54202   238.00000  19.86890             15.40975
572.44737   38.77632    152.00000  14.88720             13.08475
574.98592   1181.50704  142.00000  17.60087             10.54073
575.62500   1056.89773  176.00000  19.32254             11.66362
575.72376   1390.40331  181.00000  16.07601             14.36437
580.71859   212.88442   199.00000  24.33476             10.55386
577.93370   1407.72376  181.00000  16.81501             13.82717
580.39247   659.89785   186.00000  17.14729             13.89149
578.31387   734.27737   137.00000  14.87615             11.76948
581.25118   1286.57820  211.00000  18.57677             14.54052
580.40693   882.92641   231.00000  21.46153             13.78028
581.33333   1200.16667  132.00000  14.29320             11.93024
580.00000   821.78182   55.00000   9.25997              7.56309
581.66923   1216.38462  130.00000  13.75985             12.04714
584.80233   827.37209   86.00000   15.58110             7.30518
587.09286   934.52857   280.00000  22.57826             15.91091
582.58824   1299.16176  68.00000   10.67624             8.13515
588.60976   1075.19512  123.00000  15.06527             10.68583
592.21835   1266.19937  316.00000  24.20848             17.01507
588.99367   1340.05063  158.00000  15.32879             13.12160
589.79365   254.11111   126.00000  14.27819             11.24406
592.56281   674.69849   199.00000  18.59700             13.62051
589.60638   1183.94681  94.00000   12.35283             9.69922
594.40426   1045.65106  235.00000  21.25117             14.12631
593.70213   895.22695   141.00000  17.53107             10.35981
594.97403   228.41558   77.00000   10.47086             9.65926
595.48485   449.16162   99.00000   12.52664             10.10026
598.76585   806.36585   205.00000  17.07459             15.45144
602.50725   179.55072   138.00000  20.69194             10.83093
602.68421   1099.97368  152.00000  17.20458             11.41910
602.57005   295.58454   207.00000  17.91545             14.77050
603.78626   214.93893   131.00000  14.88671             11.28702
606.01333   364.72667   300.00000  27.36544             14.13132
611.92098   1003.20981  367.00000  32.11684             14.98950
606.39674   1234.19565  184.00000  17.55168             13.54633
606.13483   251.75281   178.00000  15.52765             14.72920
610.42244   715.37294   303.00000  21.42712             18.89093
610.61538   1352.65611  221.00000  21.89915             13.11024
608.57459   309.01657   181.00000  16.66334             13.97104
610.10692   599.55975   159.00000  16.07048             12.60888
612.00943   868.39151   212.00000  18.21588             14.94618
609.91139   339.88608   79.00000   12.61420             8.00898
612.63253   1206.30120  166.00000  16.07439             13.18184
612.90385   203.94231   104.00000  12.30436             10.74609
617.75107   1139.92275  233.00000  22.76948             13.11881
610.50000   283.13158   38.00000   7.67819              6.28532
612.22449   388.44898   49.00000   8.55826              7.36997
614.21951   1192.08943  123.00000  13.18560             11.87764
624.29739   557.66667   306.00000  26.96071             15.26131
614.96429   1051.37500  56.00000   9.92355              7.13912
620.16733   362.49801   251.00000  22.36353             14.43760
618.24706   656.75294   170.00000  16.95228             12.80382
630.07345   444.16667   354.00000  30.96315             15.17305
626.18750   1124.62946  224.00000  23.08826             12.81021
627.56902   305.64646   297.00000  22.67077             17.09433
624.72034   325.96610   118.00000  13.36498             11.33940
624.63158   1059.94737  57.00000   11.47027             6.34445
633.30435   920.19451   437.00000  31.79015             18.34987
625.94030   1105.26866  67.00000   10.25257             8.33272
626.10294   846.89706   68.00000   11.04041             7.88928
632.16474   396.00867   346.00000  24.95153             18.44763
634.12500   1208.73295  176.00000  21.48336             10.94122
628.25000   1232.67105  76.00000   11.19392             8.75194
630.80165   425.90909   121.00000  13.94808             11.24314
631.12687   1195.08955  134.00000  14.13959             12.04653
633.56585   138.77073   205.00000  19.05352             13.94394
634.15455   715.56364   220.00000  17.36796             16.11599
631.70857   792.74286   175.00000  16.94250             13.21462
633.70588   763.73529   68.00000   10.42103             8.34283
637.67347   83.99490    196.00000  16.21834             15.41249
634.01923   278.67308   52.00000   10.11094             6.70642
639.29592   991.00680   294.00000  21.99596             17.35897
642.32213   1041.37255  357.00000  28.40763             16.28233
638.57225   1222.90751  173.00000  18.37232             12.31266
637.62667   1353.06667  150.00000  15.80279             12.10278
643.11823   815.84729   203.00000  20.75923             12.73544
638.84615   1233.71154  104.00000  12.75904             10.50077
642.68394   266.68912   193.00000  16.67375             14.81498
642.42308   775.64286   182.00000  16.77819             13.87561
639.72973   108.93243   74.00000   11.54030             8.15135
646.16667   1288.12963  216.00000  22.72909             12.20841
639.68293   1092.63415  41.00000   8.88862              5.92418
642.02326   1195.82558  86.00000   13.10818             8.43890
642.06250   1066.93750  32.00000   7.80814              5.18729
645.61905   1084.32143  168.00000  16.64765             13.05755
647.32298   417.00000   161.00000  14.67055             14.00445
648.68421   333.89783   323.00000  26.97168             15.44483
652.38073   116.37156   218.00000  19.78763             14.10687
653.19186   1092.64535  172.00000  17.79407             12.89771
647.53488   1218.74419  43.00000   8.26920              6.60130
653.28235   198.11373   255.00000  19.08183             17.07060
654.42208   1146.03247  154.00000  15.62159             12.63092
661.35743   1187.02008  249.00000  24.57240             13.60229
659.07359   1027.04762  231.00000  21.86800             14.06990
653.39286   1112.82143  28.00000   6.37217              5.54090
659.75000   185.38333   120.00000  14.17171             10.89702
660.04278   686.31551   187.00000  15.69262             15.22142
658.17391   1075.73913  46.00000   8.80763              6.63199
660.29508   431.54918   122.00000  13.84757             11.22905
661.67686   902.70306   229.00000  21.57522             13.74392
659.93333   270.95556   45.00000   7.85269              7.28540
663.96795   388.28846   156.00000  15.95379             12.50746
663.21569   1225.54902  51.00000   8.50839              7.60811
669.89431   170.18699   246.00000  19.93417             15.81410
670.88542   598.65625   192.00000  19.13368             12.78547
669.90476   1090.27273  231.00000  17.76548             16.66803
671.75521   1163.79688  192.00000  23.12848             10.73721
664.95238   1211.07143  42.00000   7.77423              6.81843
672.37868   91.27206    272.00000  21.33882             16.30048
674.05747   910.36782   261.00000  19.04088             17.75205
675.74679   458.86218   312.00000  22.28075             18.08477
672.30769   1205.56923  65.00000   12.40060             6.82212
680.90411   879.14041   292.00000  22.34837             17.11461
680.04785   267.09091   209.00000  17.26165             15.56989
678.52475   1216.06931  101.00000  12.11666             10.64229
680.97048   1285.78229  271.00000  19.68483             18.19090
676.63889   308.19444   36.00000   7.36657              6.24839
681.54930   1125.25352  213.00000  22.04505             12.71244
682.99281   1226.87050  139.00000  15.48704             11.55022
687.29954   1336.62673  217.00000  22.89002             12.41430
682.70520   239.69942   173.00000  15.84718             13.93281
684.10769   898.66154   195.00000  17.05637             14.72013
688.29963   825.88390   267.00000  22.66843             15.13867
685.95858   1198.50888  169.00000  18.66320             11.68369
685.90419   1161.71257  167.00000  22.03507             9.88945
687.01093   797.96721   183.00000  16.57746             14.23186
688.16230   107.58115   191.00000  16.76689             14.84436
687.08571   448.12381   105.00000  14.24946             9.45867
689.55147   969.70221   272.00000  22.20967             15.64040
684.04000   1098.60000  25.00000   6.01328              5.21295
687.72832   32.59538    173.00000  22.37239             10.06795
689.46087   1117.97391  115.00000  13.49809             11.15235
691.01515   173.91919   198.00000  18.95791             13.32138
688.21212   1184.78788  33.00000   7.19709              5.83393
691.53000   1210.63000  100.00000  13.20720             9.65013
693.25263   458.93684   95.00000   12.13183             10.08319
689.76190   1143.28571  21.00000   6.34587              4.20801
696.85792   208.78689   183.00000  17.06116             13.97493
697.05031   1103.48428  159.00000  15.89180             12.80566
698.31982   312.09459   222.00000  17.99069             15.79247
699.51887   1122.64623  212.00000  18.92176             14.51467
694.22857   1232.57143  35.00000   7.07588              6.24158
702.30102   298.81633   196.00000  20.64363             12.12915
701.88288   917.72973   222.00000  17.77804             16.13329
698.78824   236.77647   85.00000   11.07354             9.83156
699.87129   485.03960   101.00000  14.52917             8.86975
701.15789   83.68421    57.00000   10.25130             7.09860
700.54348   288.86957   46.00000   8.77408              6.65420
705.26692   451.06015   266.00000  21.13962             16.21222
703.10811   254.20270   74.00000   11.47729             8.26391
703.16379   1206.14655  116.00000  13.55715             10.90316
706.00000   809.22111   199.00000  17.51466             14.54960
705.58757   1226.82486  177.00000  18.87183             12.64411
710.46263   135.20285   281.00000  23.64880             15.27017
710.51273   605.24364   275.00000  24.91355             14.11302
711.67811   857.15451   233.00000  17.70417             16.81785
712.11221   1027.05281  303.00000  26.22290             14.93686
712.44882   477.42913   254.00000  19.76670             16.50834
713.35659   162.89922   258.00000  22.04553             15.00333
715.63509   242.21754   285.00000  20.16476             18.03496
715.84615   1100.93665  221.00000  21.52958             13.53253
715.00000   1331.00000  141.00000  13.69164             13.08131
717.25694   37.68750    144.00000  17.14537             11.11933
716.22131   463.93443   122.00000  14.15181             11.14679
717.04918   496.04918   61.00000   11.33877             6.82408
723.13198   1032.01523  197.00000  21.27835             11.97905
716.63158   1147.23684  38.00000   7.52899              6.45900
728.79412   1299.82353  238.00000  31.29880             9.74198
722.63226   205.34839   155.00000  15.20992             13.16929
724.22672   916.37652   247.00000  18.44516             17.07536
726.51505   966.62876   299.00000  25.65741             15.90010
724.08929   1154.51786  168.00000  15.52872             13.87572
724.16049   124.18519   162.00000  16.96147             12.20158
732.06349   368.40476   252.00000  29.07265             11.29546
725.11667   1106.68333  120.00000  13.08982             11.68051
725.35071   1204.68720  211.00000  20.55102             13.21707
729.32340   21.57872    235.00000  18.45777             16.41762
726.18571   490.71429   70.00000   10.77324             8.40540
729.57962   900.86624   157.00000  14.97018             13.50405
726.64706   1182.58824  34.00000   7.14673              6.11513
731.12782   1231.97744  133.00000  15.82904             10.75212
729.61628   471.01163   86.00000   12.82044             8.51670
732.25180   519.40288   139.00000  16.40919             10.80590
734.81098   1244.84146  164.00000  22.20087             9.46889
737.17937   543.59641   223.00000  19.88306             14.28601
733.88235   1102.97059  34.00000   8.13913              5.30165
736.16667   237.00000   114.00000  13.03989             11.17834
738.55932   928.81356   177.00000  16.55058             13.65339
734.37838   1165.67568  37.00000   7.99679              5.84223
737.75714   89.22857    140.00000  14.49616             12.32751
742.03261   860.72826   276.00000  20.45275             17.48108
739.20513   1178.35256  156.00000  15.99904             12.44205
735.40000   491.40000   20.00000   5.57159              4.63005
742.87379   906.79126   206.00000  18.34826             14.33107
745.51037   619.10788   241.00000  19.38286             15.91786
745.87500   884.04630   216.00000  17.24001             16.01093
744.19048   497.97143   105.00000  12.76302             10.50429
743.36364   1119.33333  33.00000   7.00393              5.98154
750.04545   789.74432   176.00000  15.31043             14.85270
747.00000   240.71795   78.00000   11.15596             8.88762
755.41231   327.11077   325.00000  23.73733             17.55444
750.75000   249.92308   52.00000   8.77886              7.58480
750.03226   1198.41935  31.00000   7.38745              5.31720
754.79104   340.94030   134.00000  15.22444             11.44218
755.83478   578.32609   230.00000  18.71421             15.68789
757.77124   1220.59477  153.00000  18.97221             10.46824
757.25949   777.70253   158.00000  15.84226             12.84367
754.94118   1148.91176  68.00000   11.19357             7.74182
757.20482   1254.62048  166.00000  14.99163             14.16037
758.04412   364.98897   272.00000  23.07499             15.29071
757.78676   76.80882    136.00000  15.05551             11.54615
762.11684   1128.80756  291.00000  23.32801             16.28894
761.41544   1195.05147  272.00000  23.64371             14.78057
762.55039   995.31008   258.00000  23.12314             14.24336
767.61270   192.57460   315.00000  24.20394             16.84469
766.30045   628.70404   223.00000  19.01328             15.05949
766.83333   32.87097    186.00000  16.48973             14.38568
764.15385   511.82692   52.00000   9.22015              7.14520
768.42291   1080.48018  227.00000  20.77009             13.99212
770.28643   400.00503   199.00000  18.92634             13.48135
772.39298   527.35789   285.00000  23.59894             15.45297
772.33772   850.79386   228.00000  19.24645             15.14779
770.32727   1265.95758  165.00000  19.64954             10.82905
776.62651   1234.12450  249.00000  22.93474             14.10345
779.01415   1309.83491  212.00000  20.55877             14.06158
779.02899   971.70048   207.00000  17.83812             14.83321
780.17413   104.96517   201.00000  17.89576             14.43163
777.69355   1052.96774  62.00000   10.31220             7.65446
776.78571   1185.96429  28.00000   6.96645              5.27791
782.78112   380.76824   233.00000  18.78008             16.04127
776.70000   1115.15000  20.00000   5.41793              4.73772
781.75410   1256.00546  183.00000  20.07684             11.74858
784.80709   643.61024   254.00000  19.65820             16.49079
785.39662   957.59916   237.00000  19.37043             16.23828
786.60448   86.31716    268.00000  23.13353             14.81463
785.69892   224.87814   279.00000  23.10731             15.60415
786.85283   427.87925   265.00000  23.87927             14.36797
788.06000   1209.30500  200.00000  19.25328             13.62957
790.05282   541.76056   284.00000  23.23514             15.76089
788.47809   1142.75299  251.00000  19.18703             16.83875
789.08046   195.97701   174.00000  18.26845             12.41948
788.92593   1045.39259  135.00000  14.72008             11.81189
794.77689   343.95219   251.00000  19.72962             16.54924
795.10233   518.53023   215.00000  19.11725             14.52326
793.91327   892.11735   196.00000  17.86222             14.32382
795.54615   990.78462   260.00000  24.31185             13.66312
797.64571   1035.57714  175.00000  17.24848             13.21722
792.88889   1217.60000  45.00000   9.20772              6.21953
796.85621   1054.59477  153.00000  15.42829             12.74601
802.61993   593.71218   271.00000  23.25909             14.93596
797.75789   1309.92105  190.00000  19.69736             12.39812
805.78780   658.63130   377.00000  28.60914             17.83541
803.20904   695.84746   354.00000  24.42397             19.04151
800.36893   1007.48544  103.00000  13.12233             9.99573
806.27562   455.27562   283.00000  23.57762             16.18349
802.39524   1330.48095  210.00000  17.52261             15.30066
805.18834   621.28700   223.00000  20.20096             15.17639
809.07895   578.95263   190.00000  22.13044             11.26347
812.58077   1103.87692  260.00000  21.06476             15.79260
808.22034   1236.83051  118.00000  13.29326             11.37133
809.62011   876.88268   179.00000  16.52499             13.91972
810.70000   1156.13333  60.00000   11.67178             6.54561
813.67485   420.19018   163.00000  15.76377             13.20090
813.54762   1249.80952  126.00000  15.21933             10.75306
817.08791   903.97436   273.00000  27.72581             12.69170
815.20952   1260.79048  105.00000  12.58330             10.61664
818.90152   1349.55303  264.00000  20.06279             16.85804
813.05000   1205.25000  20.00000   5.37756              4.77931
815.82759   565.82759   29.00000   7.55612              4.85891
822.16872   69.86420    243.00000  20.30362             15.47652
819.46154   121.69231   104.00000  12.74882             10.37408
822.00000   582.41629   221.00000  18.74843             15.16500
817.88235   1140.76471  34.00000   7.36010              5.84238
827.14943   832.43678   261.00000  22.65713             14.75093
828.29738   1311.94169  343.00000  27.21971             17.03803
824.60360   1245.11712  111.00000  12.97618             10.98986
827.59727   523.75085   293.00000  23.70525             15.84358
828.34536   1041.17010  194.00000  17.27032             14.40159
828.85202   1161.32735  223.00000  18.63978             15.29560
824.32353   1265.64706  34.00000   7.23415              5.98029
828.97030   444.74257   101.00000  11.44642             11.36366
829.93151   474.09589   146.00000  14.88008             12.60374
830.95808   411.53293   167.00000  16.66664             12.78839
836.60510   861.54459   314.00000  25.25939             16.02773
834.72727   1093.10909  165.00000  17.25556             12.26840
839.17921   615.93190   279.00000  21.69905             17.42790
840.66337   205.70957   303.00000  24.98809             15.63518
839.72917   448.19444   144.00000  14.90731             12.49419
840.94146   645.74634   205.00000  18.15125             14.47029
837.17073   1136.31707  41.00000   7.39531              7.08246
844.37297   978.15135   185.00000  18.20004             12.97664
844.93269   1264.64904  208.00000  21.29343             13.22034
838.58065   1278.25806  31.00000   6.59055              5.98181
843.85714   1163.33333  21.00000   5.56923              4.82289
854.06641   1171.54297  256.00000  24.27602             13.77543
848.54887   1280.69925  133.00000  14.99255             11.37970
846.00000   1143.00000  29.00000   7.32492              4.96893
852.78302   48.65566    212.00000  18.79568             14.42470
853.88213   569.26616   263.00000  19.64412             17.06284
857.09286   826.84643   280.00000  25.51985             14.07101
854.28492   670.32961   179.00000  15.50629             14.71379
855.81169   800.81818   308.00000  29.22639             13.57213
858.87833   1149.34601  263.00000  24.17277             13.95879
856.15190   446.36709   158.00000  16.77819             12.08902
857.18957   527.86730   211.00000  18.64885             14.50441
863.53548   972.72258   310.00000  24.83069             17.22615
858.17284   496.49383   162.00000  15.31812             13.48753
866.60554   1127.85813  289.00000  30.05843             12.60214
865.27490   337.10757   251.00000  23.89232             13.43369
862.32065   1248.77174  184.00000  17.43555             13.56630
865.54183   91.50996    251.00000  20.53285             15.59491
864.09694   201.21429   196.00000  23.27703             11.01709
863.61486   477.96622   148.00000  15.26576             12.61585
869.73226   847.78065   310.00000  24.10437             16.47769
861.33333   1182.75758  33.00000   7.37767              5.70516
864.22340   1261.08511  94.00000   13.40510             9.09440
865.73874   716.16216   222.00000  19.02263             14.90437
871.40120   1289.61078  167.00000  18.01383             12.06320
875.17130   629.50463   216.00000  17.58194             15.64768
875.03448   305.68227   406.00000  40.52812             13.04237
876.02927   526.62439   205.00000  16.99924             15.50306
871.06667   1255.22222  45.00000   8.83964              6.49954
876.00602   366.72892   166.00000  16.57961             12.81520
876.01274   429.61783   157.00000  15.60002             12.89277
875.85955   451.75843   178.00000  17.38612             13.14147
880.09712   1118.61151  278.00000  24.65450             14.48020
878.89333   1178.17778  225.00000  21.04751             13.70852
878.58848   405.07407   243.00000  20.27305             15.49725
877.60000   540.23636   165.00000  16.34198             12.94959
873.50000   675.50000   28.00000   6.67618              5.23723
879.78889   700.64074   270.00000  21.48684             16.29760
875.47059   986.43137   51.00000   8.17457              7.88577
875.88636   1271.36364  44.00000   8.36795              6.66201
885.45817   207.93625   251.00000  23.47399             13.95961
881.57759   462.62931   116.00000  14.25160             10.47050
884.68313   487.34568   243.00000  23.49857             13.55687
877.07143   1216.71429  28.00000   6.77632              5.19418
884.09581   1286.22156  167.00000  17.06948             12.54310
887.99565   1227.44348  230.00000  22.91670             12.87902
883.44667   579.30667   150.00000  16.57062             11.79708
885.21359   659.21359   206.00000  18.24484             14.46374
886.54726   758.25373   201.00000  17.74986             14.45790
888.76125   119.77509   289.00000  23.86690             15.61117
888.77436   383.62051   195.00000  20.27792             12.44166
887.65517   447.37931   145.00000  16.23848             11.44570
893.00862   185.04741   232.00000  20.46634             14.53374
897.38150   601.48844   346.00000  28.67881             15.94512
889.65882   778.56471   170.00000  18.86515             12.08063
895.68627   394.52941   204.00000  17.23608             15.30076
894.72626   1035.71508  179.00000  17.48792             13.07515
895.61850   1313.93642  173.00000  16.45825             13.54008
895.42857   10.62143    140.00000  14.17211             12.62105
894.53435   580.25954   131.00000  14.52305             11.70044
894.68699   805.50000   246.00000  24.75455             12.72802
899.77880   1256.50230  217.00000  27.20489             11.06311
901.26275   542.30980   255.00000  24.07450             14.43925
900.33333   781.92896   183.00000  16.59914             14.18489
902.97765   1197.63966  358.00000  23.97861             19.37032
899.88182   174.60909   110.00000  12.98537             10.88380
906.11371   645.10368   299.00000  25.41649             15.98634
906.58621   259.52709   203.00000  17.93001             14.53651
905.42614   380.77841   176.00000  17.35885             12.92908
904.04787   667.34043   188.00000  16.85963             14.90074
906.03448   1284.52414  145.00000  15.51700             11.99057
906.88649   146.96216   185.00000  16.58932             14.44105
905.66667   1251.73913  69.00000   10.32436             8.62699
909.79720   711.25524   286.00000  24.00765             15.48117
913.14902   510.56471   255.00000  28.29999             11.70312
908.08000   1173.04000  50.00000   9.29328              6.82840
914.08784   1307.05068  296.00000  24.02794             16.54989
912.28313   128.84337   166.00000  15.89417             13.30509
913.89912   276.78070   228.00000  19.18894             15.67800
914.78537   677.07805   205.00000  17.93189             14.61683
916.52128   1122.14362  188.00000  17.59184             13.80019
915.71144   555.62687   201.00000  18.01711             14.39814
915.23967   605.62810   242.00000  21.77607             14.60079
916.78616   169.68553   159.00000  15.35318             13.23437
916.39167   153.21667   120.00000  14.20091             10.98158
919.57371   209.82470   251.00000  20.51950             15.80853
917.47656   463.93750   128.00000  14.48247             11.23329
921.98431   230.51373   255.00000  19.32039             17.00848
922.24843   424.27358   318.00000  25.38765             16.21007
920.31731   1147.13942  208.00000  16.89659             15.71521
921.20000   568.80000   145.00000  14.21913             13.17096
924.52555   51.31022    274.00000  22.04134             15.99137
920.37647   193.48235   85.00000   11.08546             9.83953
925.28458   701.62846   253.00000  23.25697             14.01483
918.56000   1189.80000  25.00000   6.45922              4.86425
927.20717   317.62151   251.00000  22.95903             13.94611
925.06587   348.52695   167.00000  16.78642             12.73511
925.05233   84.71512    172.00000  16.41456             13.37513
922.46341   887.92683   41.00000   7.50896              6.97006
929.40097   1180.64251  207.00000  19.91147             13.73870
929.95122   1272.54268  164.00000  15.63347             13.45328
929.46939   717.78231   147.00000  15.19901             12.35855
933.02258   1006.25806  310.00000  23.67267             17.08957
931.53333   192.98889   90.00000   12.68552             9.16224
933.26027   1113.11644  146.00000  16.59879             11.21160
933.27823   1068.35484  248.00000  21.29763             15.03533
937.26222   508.37778   225.00000  22.70865             13.25477
938.39891   1171.81421  183.00000  21.40521             11.34108
936.69474   1260.82632  190.00000  20.36338             11.93453
937.73704   368.91481   270.00000  21.51422             16.22541
936.88115   490.16803   244.00000  23.21455             14.49297
938.70916   296.91633   251.00000  20.98339             15.50174
939.41390   593.57100   331.00000  24.74715             17.19398
937.02235   271.44134   179.00000  16.56937             13.87762
940.79182   892.21933   269.00000  28.08471             12.39626
940.00000   1227.45643  241.00000  21.01233             14.64247
944.53498   1045.39506  243.00000  28.37147             11.49698
941.80311   1033.60104  193.00000  16.92288             14.65964
942.64242   1318.47273  165.00000  16.15493             13.09232
945.64433   795.36598   194.00000  17.38107             14.33759
943.93151   1276.17123  146.00000  16.01964             11.74289
944.10909   101.80909   110.00000  13.28247             10.57452
945.42254   473.09155   142.00000  15.72852             11.49600
948.75433   548.42215   289.00000  25.22828             15.10266
947.17347   311.26531   196.00000  17.65341             14.20170
949.88710   388.02016   248.00000  21.25174             14.91779
950.71865   978.05199   327.00000  26.81395             15.79055
950.00382   817.76718   262.00000  25.80045             13.24705
954.40517   121.35345   116.00000  14.46946             10.22889
957.17083   915.43750   240.00000  18.58329             16.52266
960.36398   1001.02682  261.00000  21.78337             15.40006
959.04545   363.17727   220.00000  18.71667             15.01228
962.86873   338.55212   259.00000  21.14685             15.63820
959.62376   939.99010   202.00000  18.33652             14.06212
962.19184   1181.73469  245.00000  18.78905             16.69509
962.65094   178.72642   212.00000  18.84767             14.71603
956.58621   1193.75862  29.00000   6.69757              5.51065
960.79487   1279.81410  156.00000  14.94027             13.37710
961.70504   480.02878   139.00000  14.10350             12.62530
965.25424   29.02542    236.00000  21.02509             14.37580
965.33613   258.68067   238.00000  19.17337             15.87032
966.61165   1610.50000  206.00000  19.30606             13.58929
966.19892   121.76344   186.00000  18.72378             12.90407
967.62694   1252.26943  193.00000  18.05098             13.84057
968.14468   228.42128   235.00000  22.11474             13.77578
968.52542   594.34237   295.00000  25.35423             15.04555
971.24747   698.54040   198.00000  18.23987             13.91163
967.47244   160.85039   127.00000  17.93941             9.18296
973.07798   653.99083   436.00000  31.70913             17.90114
973.98885   1197.87732  269.00000  21.81771             15.77341
973.00000   487.95690   116.00000  13.15439             11.35180
978.38321   979.45985   274.00000  24.96509             14.32381
980.57843   507.39869   306.00000  28.69375             13.77649
977.11290   72.40323    186.00000  20.05064             11.96343
977.59783   163.92935   184.00000  16.87135             13.98425
979.19331   1110.66914  269.00000  20.13512             17.21990
981.25817   1239.32353  306.00000  26.87725             14.59864
981.36255   547.14343   251.00000  22.84866             14.09589
980.47222   1605.34722  144.00000  13.76190             13.40820
983.88764   718.38202   356.00000  32.37195             14.47946
982.41000   957.95000   200.00000  20.89458             12.78933
989.29893   455.04982   281.00000  25.73674             14.29560
983.59028   1076.18056  144.00000  15.05291             12.36852
986.34731   116.97006   167.00000  17.94746             11.91856
981.71875   1169.18750  32.00000   6.60083              6.17260
987.49761   208.73684   209.00000  18.78746             14.20592
988.28959   232.54751   221.00000  19.56850             14.70075
987.53731   997.08955   134.00000  17.28897             10.11503
989.20349   949.15116   172.00000  20.04384             11.18586
992.80583   575.78155   206.00000  20.02804             13.25172
993.60300   883.13483   267.00000  20.25704             17.28091
991.29221   926.73377   154.00000  14.66078             13.48844
994.15986   1123.84694  294.00000  25.28980             15.43108
993.94836   1602.97183  213.00000  17.74245             15.55136
992.76163   96.22093    172.00000  19.62602             11.34713
993.63905   689.32544   169.00000  15.75949             13.81111
993.34343   808.24747   198.00000  21.99534             11.59086
996.01429   1082.90357  280.00000  23.21987             15.82222
995.23404   1255.97872  188.00000  20.13462             12.14849
999.73864   346.20455   264.00000  26.78000             13.00500
997.37714   1199.92571  175.00000  16.30888             13.74375
999.80233   490.18605   172.00000  18.22353             12.08221
994.92000   1036.44000  25.00000   6.22913              5.01975
1000.50915  778.14329   328.00000  31.31446             13.70424
1002.42322  1233.49438  267.00000  25.16443             14.04664
1003.83258  319.38462   221.00000  19.54059             14.42226
1002.29167  28.19048    168.00000  15.79883             13.54984
1002.57377  92.83607    122.00000  14.90643             10.62178
1006.73889  443.41667   180.00000  18.19572             12.99497
1004.68182  683.63636   132.00000  14.01027             12.24897
1012.33566  1330.13636  286.00000  30.54422             12.31517
1005.98710  1593.08387  155.00000  15.89337             12.63617
1008.36158  79.98870    177.00000  18.15463             12.49358
1010.53723  1209.74468  188.00000  18.35934             13.38773
1009.04762  198.60000   210.00000  21.06653             12.79007
1012.12414  372.40000   145.00000  17.38605             10.99316
1015.85336  420.96466   566.00000  32.03008             22.98071
1013.86901  1071.46326  313.00000  23.96725             16.83172
1012.83085  270.98507   201.00000  17.61846             14.53403
1010.11688  1092.94805  77.00000   11.15480             8.84995
1012.07742  227.70968   155.00000  15.93808             12.41088
1016.74348  1580.66522  230.00000  19.49609             15.20454
1017.47183  501.50000   142.00000  15.66276             11.58754
1021.18039  570.42745   255.00000  19.60399             16.74925
1025.71031  339.58774   359.00000  25.39732             18.54920
1023.63087  35.31544    149.00000  14.82734             12.94913
1024.82237  469.02961   304.00000  23.96229             16.48844
1023.02500  1232.80000  200.00000  17.51972             15.04691
1027.04000  20.90667    150.00000  17.10904             11.21052
1024.63014  108.91781   73.00000   10.86343             8.70938
1029.68692  178.00467   214.00000  19.77729             13.86586
1027.73000  436.34000   100.00000  13.21895             9.74902
1032.06395  670.61047   172.00000  19.88176             11.17260
1031.77689  154.62948   251.00000  22.22202             14.47136
1031.24229  201.12775   227.00000  21.54672             13.52242
1037.21591  1294.07576  264.00000  24.99766             13.58388
1034.76440  250.44503   191.00000  18.93688             12.86813
1034.25490  498.43137   102.00000  12.92912             10.13427
1036.79470  69.27815    151.00000  17.40012             11.15154
1043.10744  1337.41322  242.00000  25.06545             12.45208
1040.82500  44.47500    160.00000  16.27060             12.65573
1047.93624  1257.54698  298.00000  24.21851             15.78954
1045.95726  462.64957   234.00000  22.69693             13.13379
1045.89720  223.52804   214.00000  18.76217             14.62508
1046.53648  354.17167   233.00000  20.88844             14.28361
1048.02500  98.93750    80.00000   11.29423             8.99821
1052.43784  279.50270   185.00000  16.69561             14.24667
1051.85714  499.86286   175.00000  16.64816             13.45702
1052.08383  537.73653   167.00000  16.23239             13.10685
1059.60169  1272.79661  236.00000  22.84794             13.21242
1054.71605  91.43210    81.00000   11.63736             8.89712
1061.72566  203.30531   226.00000  19.70906             14.61751
1063.38800  160.01200   250.00000  25.62876             12.81325
1059.90541  4.93243     74.00000   11.57139             8.41781
1066.07895  289.78947   228.00000  22.46954             13.20799
1067.65926  1555.32222  270.00000  22.30942             15.54302
1072.36293  254.00772   259.00000  26.19337             12.74095
1068.14935  362.68831   154.00000  14.38698             13.66908
1070.80380  336.01266   158.00000  15.55487             12.96381
1071.08791  530.70879   182.00000  22.47378             10.64505
1074.86740  623.35912   181.00000  15.99892             14.44017
1074.32258  1318.93548  186.00000  16.48603             14.53012
1079.88095  646.63492   252.00000  22.97487             14.58264
1080.64045  1217.78652  267.00000  20.80669             17.00230
1075.92903  85.43226    155.00000  16.19134             12.27045
1080.30769  489.89615   260.00000  22.37733             15.30103
1080.52083  564.69583   240.00000  20.07205             15.77209
1083.92208  1287.92532  308.00000  22.74467             18.04036
1081.22709  445.79681   251.00000  21.19274             15.47533
1080.29688  525.71354   192.00000  19.84973             12.59359
1085.75862  1535.40948  232.00000  19.56553             15.14945
1082.79518  152.86747   83.00000   11.91154             8.87973
1086.38393  391.37500   224.00000  21.92397             13.09372
1091.59184  658.76327   245.00000  22.42881             14.07265
1090.24569  241.86638   232.00000  18.69871             15.90933
1090.40336  295.00000   119.00000  13.01358             11.70548
1094.54545  1362.78451  297.00000  25.17498             15.49595
1096.28017  432.10345   232.00000  22.12571             13.43662
1098.69907  142.58796   216.00000  20.38580             13.69895
1098.65778  462.69333   225.00000  18.24248             16.20898
1100.56707  306.58537   164.00000  17.35618             12.44849
1103.60650  1216.55235  277.00000  25.46773             14.05019
1101.50000  98.21053    228.00000  17.85464             16.36034
1103.72247  326.11454   227.00000  21.37982             13.67587
1103.96859  1335.09424  191.00000  21.00264             11.77221
1107.11258  1391.83444  302.00000  24.61892             15.92353
1106.40437  168.83607   183.00000  18.27555             12.82443
1104.92473  393.76344   186.00000  23.83580             10.15090
1107.12613  407.68468   111.00000  15.49200             9.24684
1108.46818  370.22727   220.00000  22.44938             12.59079
1112.12705  350.45082   244.00000  19.96348             15.80979
1109.38938  205.64602   113.00000  12.47287             11.56116
1115.52000  429.83556   225.00000  22.27634             13.35137
1115.75862  61.80296    203.00000  21.52734             12.24887
1116.07882  1143.77340  203.00000  18.61266             14.22956
1116.30189  1340.78302  106.00000  13.78248             10.43857
1117.40000  1490.87586  290.00000  21.41517             18.26824
1119.27823  283.31048   248.00000  19.90341             15.91639
1121.47020  261.12583   302.00000  21.99126             18.01575
1119.91667  216.20833   168.00000  16.99345             12.58260
1121.05839  244.43796   137.00000  14.19582             12.35830
1120.40741  27.72840    81.00000   12.46521             8.39708
1125.76413  467.62162   407.00000  32.74602             16.74014
1125.13084  336.26636   214.00000  18.61501             14.73876
1126.46552  446.71264   174.00000  16.46892             13.46379
1126.17687  160.59184   147.00000  17.55804             10.74400
1130.46154  668.58654   208.00000  24.43989             11.35825
1129.90213  142.96596   235.00000  21.37716             14.08676
1128.37363  1449.69597  273.00000  28.16092             12.72407
1133.69403  179.03358   268.00000  19.91345             17.70651
1129.97143  1141.70952  210.00000  18.00240             14.90407
1135.55085  723.88559   236.00000  21.88043             13.90206
1137.65086  290.23276   232.00000  19.98876             14.93127
1143.77193  311.43860   285.00000  26.54276             14.06376
1136.30128  370.10897   156.00000  17.38230             11.49395
1146.46691  625.56250   272.00000  27.62463             12.80531
1144.96774  1372.34562  217.00000  27.12654             10.31808
1146.48921  427.61151   139.00000  17.82842             10.11252
1145.33962  266.13836   159.00000  14.36199             14.13268
1147.05901  528.36646   322.00000  26.76383             15.62455
1145.64497  205.43195   169.00000  17.21003             12.58048
1147.07330  324.90052   191.00000  19.25892             12.67027
1146.61111  363.56173   162.00000  19.30750             10.73124
1152.00362  1121.48551  276.00000  24.53793             14.61296
1148.09195  122.49425   174.00000  17.33947             12.83091
1150.66412  403.75573   131.00000  17.60440             9.49392
1149.66667  226.46341   123.00000  13.21644             11.84787
1154.52000  240.93500   200.00000  17.59359             14.56817
1159.54487  1226.21474  312.00000  25.28757             15.96550
1155.81553  648.91262   206.00000  17.43172             15.15527
1160.38462  193.32840   338.00000  27.10811             16.76973
1160.82906  270.82051   234.00000  19.58386             15.31110
1160.23077  62.78846    156.00000  14.68517             13.61403
1163.53125  15.40625    128.00000  15.18417             10.76034
1162.72034  395.38983   118.00000  14.00545             10.89371
1166.44286  410.99524   210.00000  20.18156             13.28102
1164.54902  322.95425   153.00000  14.70382             13.32991
1163.78846  560.11058   208.00000  22.81109             11.89910
1171.05102  157.71769   294.00000  34.15521             12.30879
1169.02294  668.86697   218.00000  21.07646             13.77558
1172.93215  226.08555   339.00000  26.39607             17.09182
1171.47674  570.87209   86.00000   11.70337             9.74883
1173.60729  593.98785   247.00000  20.70300             15.34096
1175.37594  683.42857   133.00000  17.72683             9.72185
1179.75573  293.52290   262.00000  23.28066             14.45743
1178.51282  37.50256    195.00000  19.19630             13.04633
1177.16129  274.54839   186.00000  20.07926             11.83506
1181.41841  446.51464   239.00000  22.98077             13.57114
1183.14859  188.58635   249.00000  23.40533             13.68049
1185.75862  359.76847   203.00000  21.06834             12.79664
1185.82949  1102.84332  217.00000  17.43891             15.88623
1191.63673  611.60408   245.00000  27.58807             11.57872
1196.45813  1382.42857  203.00000  29.61598             9.30203
1188.89503  206.12707   181.00000  17.60785             13.10154
1189.49701  318.61078   167.00000  16.07737             13.36201
1192.40367  307.15596   109.00000  13.80910             10.19086
1196.14474  335.32895   228.00000  22.51733             13.07837
1193.97093  23.83721    172.00000  15.67068             14.05775
1192.52577  122.82474   194.00000  20.39007             12.28992
1201.68342  151.22111   199.00000  18.01966             14.24769
1198.42132  360.75635   197.00000  27.28654             9.46486
1202.79293  1073.87879  198.00000  17.53804             14.59836
1206.72031  1210.24138  261.00000  23.51353             14.44433
1206.91250  254.06250   160.00000  16.92006             12.04684
1211.40785  55.48640    331.00000  26.68180             16.71342
1209.75517  432.31379   290.00000  26.36671             14.15091
1216.38839  1397.35268  224.00000  26.57733             11.31808
1216.27414  389.35826   321.00000  25.11954             17.05612
1214.19444  170.75000   252.00000  19.85457             16.19722
1217.34553  643.23984   246.00000  23.03229             14.03423
1221.93132  280.37363   364.00000  28.83775             16.69535
1216.70909  472.30909   165.00000  19.20711             11.19677
1217.41129  330.41129   124.00000  15.62664             10.15723
1222.93605  696.38372   172.00000  25.41386             9.56705
1221.36646  352.50932   161.00000  15.89495             12.93396
1220.61988  73.87719    171.00000  18.21393             12.02402
1221.83893  461.35570   149.00000  15.14130             12.60364
1223.56497  1026.72881  177.00000  15.35124             14.73990
1225.82297  146.52632   209.00000  16.82518             15.85758
1229.89818  508.73455   275.00000  24.01876             14.71827
1224.87671  704.09589   73.00000   10.32646             9.14652
1236.71542  179.96838   253.00000  30.35835             11.28570
1233.62893  311.94969   159.00000  18.81806             10.99636
1233.27778  1211.00926  216.00000  16.83767             16.39324
1235.42273  368.31818   220.00000  18.45445             15.22347
1237.04969  464.27950   161.00000  18.70253             11.06644
1236.27228  410.44554   202.00000  17.59156             14.69143
1236.71277  676.61702   188.00000  17.23177             13.94195
1239.06857  648.36571   175.00000  16.24251             13.77783
1239.03846  1019.76923  234.00000  20.68526             14.65839
1240.55172  633.24828   145.00000  15.64193             11.88266
1243.67511  1401.56118  237.00000  19.59017             15.68828
1250.54722  217.48910   413.00000  28.47533             19.42277
1243.51462  742.29825   171.00000  16.21715             13.49285
1243.47273  983.68636   220.00000  18.08447             15.52309
1243.12195  563.11585   164.00000  16.40526             12.76333
1243.88690  606.15476   168.00000  16.41977             13.05641
1249.58609  19.87086    302.00000  23.31537             17.80045
1246.35507  201.10145   138.00000  14.55775             12.12640
1245.60736  304.21472   163.00000  21.01481             10.30256
1249.13376  249.94268   157.00000  17.01385             11.79113
1253.32828  472.81313   198.00000  23.38825             10.93044
1252.83893  730.66443   149.00000  16.42360             11.73969
1252.79562  515.16058   137.00000  14.86070             11.89638
1252.48588  542.25989   177.00000  17.28734             13.05083
1258.17460  619.12302   252.00000  28.54010             11.34325
1253.85294  847.11176   170.00000  15.23559             14.38264
1255.90429  896.20792   303.00000  23.06625             16.89946
1256.53646  414.31250   192.00000  16.39320             14.97818
1255.85161  452.15484   155.00000  15.50609             13.02155
1264.93305  524.28452   239.00000  24.65534             12.39594
1261.33333  434.52632   171.00000  16.64399             13.18498
1262.39207  801.62115   227.00000  20.03379             14.64609
1260.65385  168.57051   156.00000  15.70928             12.69530
1262.79167  977.18750   240.00000  18.77813             16.38469
1263.89630  54.79259    135.00000  14.35338             12.08587
1262.95000  118.22500   120.00000  13.04439             11.76692
1263.45775  401.30282   142.00000  15.62652             11.60891
1270.92381  786.94286   315.00000  25.79220             15.76378
1265.54815  84.54815    135.00000  15.13747             11.58022
1266.38129  101.71223   139.00000  14.26610             12.41575
1267.93373  342.62651   166.00000  17.18614             12.79578
1270.21429  764.05952   252.00000  21.18068             15.24562
1271.40870  144.61304   230.00000  19.03462             15.55878
1274.61275  555.88725   204.00000  21.73351             12.06001
1271.25484  688.80968   310.00000  25.83813             15.70652
1273.79835  868.61728   243.00000  18.17380             17.12562
1275.39922  372.50000   258.00000  21.52392             15.37541
1277.34839  640.36774   155.00000  15.45678             12.99038
1277.32222  463.00556   180.00000  18.22626             12.63186
1281.66527  279.51046   239.00000  24.36867             12.85538
1280.40789  886.57566   304.00000  23.91663             16.27330
1290.41554  1415.55405  296.00000  41.61652             9.90830
1284.23466  107.41877   277.00000  21.71066             16.32676
1283.05911  809.77340   203.00000  18.02542             14.43176
1284.03774  575.62893   159.00000  14.88905             13.81239
1286.08145  502.66968   221.00000  18.53200             15.40929
1284.20909  191.86364   110.00000  12.80190             10.97707
1284.66837  232.91837   196.00000  21.86631             11.51744
1285.77778  47.21667    180.00000  17.46318             13.23575
1285.76712  558.95890   73.00000   10.99704             8.42894
1292.92070  624.59912   227.00000  20.39541             14.34497
1297.09205  1186.84937  239.00000  20.25784             15.28201
1296.95213  413.04255   188.00000  19.87938             12.12261
1294.31959  222.14433   97.00000   12.28434             10.08181
1297.45763  593.98305   177.00000  16.01878             14.14766
1298.43000  373.90500   200.00000  18.51236             13.98962
1300.03289  523.10526   152.00000  14.70733             13.21183
1300.79747  132.63924   158.00000  16.31697             12.37720
1301.72000  464.21333   150.00000  17.23196             11.13121
1306.06736  180.09326   193.00000  18.14421             13.67975
1306.87050  600.69784   139.00000  20.01085             9.25548
1307.39744  386.69231   156.00000  14.54072             13.68931
1312.64748  688.94604   278.00000  20.50556             17.47161
1307.56863  287.54902   51.00000   8.50600              7.60836
1311.60390  511.72727   154.00000  17.13124             11.45355
1316.44720  106.42236   161.00000  16.16420             12.72718
1317.51381  811.64641   181.00000  17.26944             13.37209
1316.28333  70.24167    120.00000  13.22319             11.62160
1322.11168  437.40102   197.00000  24.44666             10.51922
1318.25517  139.64828   145.00000  15.56583             11.92539
1323.78082  1189.04452  292.00000  22.46178             16.67200
1320.93814  316.63918   97.00000   12.74137             9.71172
1329.26087  568.97516   161.00000  17.08593             13.29795
1330.48534  713.34853   307.00000  22.35062             17.67646
1330.04673  1432.35981  214.00000  22.53829             12.54426
1328.00787  8.52756     127.00000  14.42903             11.23596
1325.69565  581.30435   23.00000   6.46182              4.54666
1330.65000  44.28125    160.00000  15.11976             13.55977
1328.93496  59.45528    123.00000  14.22935             11.01934
1332.53368  447.99482   193.00000  20.80698             11.85335
1329.20290  605.42029   69.00000   11.36621             7.68715
1332.55224  306.50249   201.00000  19.29186             13.53231
1332.67123  25.83562    146.00000  15.97438             11.71229
1330.80488  456.87805   41.00000   7.54998              6.92147
1333.76699  1445.18447  103.00000  13.95694             9.52383
1335.03529  159.98824   170.00000  17.01007             12.70664
1338.22967  593.48325   209.00000  21.88765             12.27851
1336.41667  552.39881   168.00000  18.78128             11.43669
1338.88976  429.25197   127.00000  16.83562             9.63331
1342.06464  522.00380   263.00000  23.69878             14.81356
1345.59333  22.84667    150.00000  14.45728             13.29128
1343.71795  170.05128   78.00000   10.91516             9.24624
1343.95556  290.31111   45.00000   9.23668              6.18539
1347.19512  159.37398   123.00000  14.09083             11.12676
1355.44876  320.69611   283.00000  28.81369             13.17713
1353.79577  144.42958   142.00000  15.00699             12.05217
1353.63592  361.00485   206.00000  23.28138             12.28195
1354.82162  382.62703   185.00000  16.77038             14.36053
1355.65306  468.44218   147.00000  16.96864             11.11064
1361.08935  808.22680   291.00000  24.02645             15.67997
1358.04348  845.15528   161.00000  15.00193             13.91784
1365.95763  833.95763   236.00000  21.08232             14.50495
1370.72611  65.75478    314.00000  22.52572             18.09906
1369.00000  584.36022   186.00000  16.60829             14.57138
1370.57092  406.24468   282.00000  25.02523             14.80910
1377.13433  349.69154   201.00000  21.90303             12.08093
1379.55208  127.26562   192.00000  18.39125             13.37932
1382.34599  500.71730   237.00000  19.56749             15.59872
1383.88000  321.26222   225.00000  21.01306             13.94340
1384.35897  789.61026   195.00000  16.72673             14.87145
1385.71895  1473.94771  153.00000  16.09743             12.23984
1389.31522  77.35870    92.00000   12.15891             9.66344
1396.22120  107.21659   217.00000  19.03539             14.81781
1402.93590  393.82906   234.00000  21.73054             13.97686
1402.52717  1478.17391  184.00000  22.20267             10.77547
1404.10628  76.05314    207.00000  18.60835             14.28543
1404.36842  227.99415   171.00000  16.26210             13.40476
1408.54545  596.09091   275.00000  22.47582             16.23542
1410.58716  106.30275   109.00000  12.25074             11.39777
1411.92174  323.22609   115.00000  13.36759             10.97707
1413.67669  606.09023   133.00000  17.98435             9.53313
1418.71656  237.38854   314.00000  23.90991             17.04409
1418.53160  879.92937   269.00000  24.58977             14.44662
1419.48667  43.84000    150.00000  17.16145             11.44751
1421.91667  16.95833    216.00000  19.00233             14.52567
1425.91781  308.45205   219.00000  21.37881             13.46831
1436.09623  535.61698   530.00000  37.59410             20.24844
1429.97268  327.05464   183.00000  17.75001             13.12000
1437.62308  143.08462   130.00000  19.11836             9.62572
1435.73050  559.53901   141.00000  15.63645             11.52316
1439.16017  77.15584    231.00000  21.39682             13.85049
1444.76336  1500.53817  262.00000  28.62817             11.89766
1445.28522  1577.67010  291.00000  21.56338             17.25467
1447.12782  424.70301   266.00000  21.40340             16.52010
1448.02756  902.87008   254.00000  21.39997             15.22001
1450.27570  737.36916   214.00000  21.77577             12.71502
1448.65000  758.13889   180.00000  19.36514             12.05037
1453.91457  182.85930   199.00000  17.86701             14.22626
1454.04098  566.03279   122.00000  13.68341             11.41177
1461.56522  502.67081   161.00000  23.81957             8.80394
1464.45865  396.21053   266.00000  28.70343             12.26066
1468.37991  714.14847   229.00000  18.44424             15.99111
1467.52764  428.58291   199.00000  21.41897             11.95637
1475.30496  162.14184   141.00000  15.10464             11.96912
1476.19394  187.41818   165.00000  16.34539             12.86472
1482.01762  1524.64317  227.00000  23.24484             12.45312
1483.19598  523.52764   199.00000  19.86634             12.80147
1479.75490  38.30392    102.00000  14.97124             8.94052
1482.03529  97.64706    85.00000   12.44999             8.79418
1488.00755  929.03019   265.00000  19.92506             17.17620
1489.48848  695.59908   217.00000  22.04153             12.66450
1492.10000  508.17333   150.00000  19.41209             9.92892
1498.22650  531.52137   234.00000  24.40921             12.24165
1497.71528  66.00694    144.00000  13.93700             13.26717
1495.52525  123.50505   99.00000   12.39358             10.14663
1498.54140  98.01911    157.00000  16.82805             11.95827
1500.69672  20.63934    122.00000  15.50349             10.05675
1503.35043  56.17094    117.00000  14.33193             10.45427
1505.96721  111.63934   122.00000  15.65712             10.22222
1507.57971  83.21739    138.00000  15.07305             11.68439
1505.95556  352.44444   45.00000   8.84928              6.44363
1511.97490  679.43515   239.00000  22.37322             13.74353
1518.29657  965.93873   408.00000  35.00874             15.58970
1510.37407  458.82222   270.00000  26.76800             13.25603
1512.76296  18.75556    135.00000  15.90308             10.80705
1513.88608  2.82278     79.00000   13.47693             7.51312
1516.63873  46.10116    346.00000  32.83839             14.12049
1519.42029  353.87440   207.00000  21.81085             12.18419
1520.75573  994.85496   262.00000  23.49378             14.47831
1522.54795  914.05753   365.00000  29.61120             16.03786
1527.58635  807.86747   249.00000  22.29470             14.49026
1531.65449  943.97342   301.00000  25.42125             15.85058
1527.87283  82.09249    173.00000  17.85353             12.42505
1529.64314  420.16078   255.00000  20.91991             15.59488
1530.43233  1053.28195  266.00000  21.28795             16.33681
1532.53875  863.95572   271.00000  21.84068             16.30225
1537.04762  1088.72619  336.00000  23.92384             18.69389
1532.09714  369.69714   175.00000  19.65730             11.55338
1538.30038  756.83270   263.00000  27.82174             12.80322
1534.45500  1346.34000  200.00000  18.98750             13.56440
1536.57098  1120.68770  317.00000  27.42309             15.00741
1539.76642  1023.31752  274.00000  23.47326             15.15401
1538.08879  893.75701   214.00000  23.01384             11.88351
1543.99170  436.13278   241.00000  25.00203             12.78522
1546.00889  802.97333   225.00000  17.58198             16.87125
1548.98283  654.66524   233.00000  20.48701             14.56124
1553.66553  776.26962   293.00000  25.68110             15.81373
1546.12953  1344.64767  193.00000  20.41219             12.09932
1553.25888  1322.07614  197.00000  22.01332             11.67821
1550.68421  1297.37719  228.00000  18.59506             15.65754
1553.27179  989.07179   195.00000  18.37929             13.68562
1553.84127  400.95238   189.00000  17.85459             13.51667
1559.73551  58.71739    276.00000  20.15464             17.71683
1559.27835  378.31443   194.00000  16.95737             14.60467
1558.92672  1244.00431  232.00000  20.47582             14.59214
1561.44656  1224.49237  262.00000  20.16577             16.68241
1569.74933  317.14286   371.00000  24.41233             19.55655
1569.25688  656.11927   218.00000  18.92513             14.98274
1567.72381  1429.92857  210.00000  17.94166             15.27633
1572.34483  738.13027   261.00000  23.03754             14.78330
1572.13295  36.87861    173.00000  18.64490             11.90179
1577.72308  711.26154   325.00000  25.52998             16.44993
1582.61240  1320.25969  258.00000  22.83782             14.64958
1584.51838  1175.48897  272.00000  23.91478             14.62731
1585.85714  760.06926   231.00000  20.10090             14.66217
1586.23179  334.31788   151.00000  15.91299             12.22237
1591.19408  1016.00329  304.00000  30.46207             12.92841
1595.06452  1362.70323  155.00000  15.93442             12.41016
1597.89573  1413.37915  211.00000  21.10154             12.80198
1602.78138  677.59919   247.00000  21.52060             15.23228
1602.80617  767.34802   227.00000  20.74435             14.39945
1601.81481  321.58333   108.00000  14.65825             9.44545
1606.19718  1519.50000  142.00000  18.03544             10.30873
1607.52569  1151.47036  253.00000  18.67319             17.31454
1609.17460  489.56349   252.00000  19.88627             16.49963
1618.49351  900.22857   385.00000  27.15742             18.23986
1611.97701  318.66667   87.00000   12.93386             8.84790
1622.82464  1367.14692  211.00000  25.59212             10.75611
1621.79104  1411.07463  201.00000  17.57040             14.93688
1624.73214  677.65357   280.00000  25.45046             14.11606
1627.66187  1108.92806  278.00000  23.45130             15.38225
1633.61034  763.53448   290.00000  28.11085             13.40385
1630.02893  398.04545   242.00000  23.17419             13.40167
1632.48837  482.05233   172.00000  17.03883             12.98495
1635.09150  10.42484    153.00000  14.60564             13.34190
1635.83333  316.05000   120.00000  13.66318             11.24424
1639.01333  272.41333   225.00000  18.01948             16.04306
1639.69504  800.99291   141.00000  18.89877             9.54795
1641.59036  646.58735   332.00000  24.43062             17.48253
1640.05556  33.98990    198.00000  17.13163             14.81576
1639.20652  91.54348    184.00000  18.92773             12.41957
1643.41860  1540.59535  215.00000  24.87207             11.07914
1646.20388  1583.26699  206.00000  17.53012             15.01637
1650.96183  805.67939   131.00000  17.48484             9.59811
1653.09635  1079.19601  301.00000  22.18642             17.57896
1652.49519  1603.44231  208.00000  19.99099             13.41063
1655.77818  1659.16364  275.00000  23.93903             14.69068
1654.15294  1500.20000  170.00000  17.54807             12.40652
1656.87500  1325.28804  184.00000  17.93197             13.42278
1661.49375  1697.70000  160.00000  14.53271             14.08402
1663.77946  1409.22356  331.00000  28.71251             15.03015
1667.08943  253.32520   123.00000  13.69220             11.59637
1669.94253  677.67433   261.00000  20.31125             16.69337
1668.20661  1372.82645  121.00000  14.08504             10.98687
1671.25862  631.06897   232.00000  20.17917             14.89965
1668.41727  1687.51799  139.00000  19.01463             9.39913
1671.53704  982.07407   216.00000  18.00303             15.30202
1671.86996  1012.57848  223.00000  17.67996             16.07384
1672.42308  484.05769   156.00000  15.51574             12.84766
1673.19481  278.44805   154.00000  14.71466             13.38432
1674.04825  40.92105    228.00000  21.14827             13.77450
1675.17690  1592.06859  277.00000  24.09235             14.93019
1675.24752  586.66007   303.00000  29.99461             13.22223
1675.98214  82.58036    112.00000  13.84297             10.94039
1674.77059  369.62353   170.00000  17.21328             12.61112
1677.11304  940.60435   230.00000  17.61477             16.80534
1676.05660  1528.98113  159.00000  14.89053             13.95055
1677.66135  763.37849   251.00000  18.26332             17.67112
1677.35915  291.28169   142.00000  18.54837             9.91253
1683.04741  545.35776   232.00000  18.00844             16.55373
1684.17241  492.22414   232.00000  20.58235             14.52410
1685.79111  529.29333   225.00000  18.18626             16.04613
1686.20202  1671.94444  198.00000  18.11761             13.99637
1684.67873  1486.39367  221.00000  22.50269             12.63964
1687.04895  1371.98601  143.00000  15.09652             12.29807
1689.18868  630.42925   212.00000  17.42904             15.61669
1693.78652  788.06742   267.00000  22.14115             16.05028
1692.46512  1341.64535  172.00000  21.13049             10.61068
1692.60741  910.16667   270.00000  22.80919             15.31209
1687.95238  369.35714   42.00000   8.73353              6.08908
1694.10879  400.08787   239.00000  26.27687             11.71595
1693.30769  1394.19872  156.00000  16.54149             12.10325
1695.42788  1642.42788  208.00000  20.42376             13.29299
1698.91667  740.60648   216.00000  20.55019             13.59974
1700.87336  1449.43231  229.00000  21.59572             14.46944
1699.78868  510.81887   265.00000  20.82045             16.27644
1701.18067  640.34034   238.00000  20.16643             15.02766
1697.87407  959.61481   135.00000  14.24733             12.19171
1704.53782  1612.76050  238.00000  20.83872             14.73350
1705.19084  164.80916   131.00000  13.92016             12.11628
1708.85317  481.92460   252.00000  22.07979             14.72443
1706.39869  1397.35948  153.00000  14.92477             13.21467
1705.59777  1889.21788  179.00000  16.59426             13.74255
1706.85590  441.08734   229.00000  23.19345             12.68024
1706.32673  463.83168   101.00000  13.46597             9.71430
1710.88123  855.31418   261.00000  23.26438             14.62003
1711.80816  1339.42041  245.00000  21.86655             14.33834
1719.80657  760.00000   274.00000  25.61982             14.21488
1720.12442  602.21659   217.00000  18.48029             15.04177
1723.66000  833.97600   250.00000  23.78838             13.44850
1723.69939  314.93865   163.00000  17.09934             12.14619
1727.66429  417.73929   280.00000  23.99236             15.15411
1729.77707  1325.56051  157.00000  17.55631             11.70084
1730.75309  1507.20165  243.00000  20.94241             14.84139
1731.82192  1454.83105  219.00000  17.71873             15.95786
1736.04167  1547.09583  240.00000  20.87031             14.74863
1735.00000  1373.10088  228.00000  19.62557             15.27780
1733.41803  1428.86066  122.00000  13.72628             11.46157
1737.20904  1010.45763  177.00000  17.49794             12.92518
1738.61922  1250.65125  281.00000  25.81622             14.44601
1738.56078  555.38431   255.00000  22.28836             15.26109
1742.12033  1721.89627  241.00000  20.20384             15.79427
1741.83951  504.80247   162.00000  16.92132             12.22991
1744.15487  997.79204   226.00000  18.85572             15.48011
1743.86425  309.04977   221.00000  19.18684             14.68219
1745.99134  778.76190   231.00000  20.91357             14.28770
1746.38728  487.46821   173.00000  15.67309             14.09491
1746.82949  375.80645   217.00000  21.19797             13.17504
1749.48804  1321.07656  209.00000  20.02539             13.74190
1760.65994  1211.89049  347.00000  27.72807             16.81137
1756.90000  266.42593   270.00000  25.13189             13.74880
1754.12963  441.34259   108.00000  13.19707             10.43435
1760.53521  1424.24648  142.00000  15.60142             11.66424
1762.93878  413.16327   196.00000  16.46043             15.21266
1767.41503  1388.99020  306.00000  31.94737             13.32082
1766.75000  1339.91000  200.00000  20.93765             12.23786
1766.49704  312.16568   169.00000  17.77878             12.14104
1767.63603  607.82721   272.00000  21.73974             16.14889
1772.02119  790.90678   236.00000  19.00597             15.90810
1772.64563  394.57282   206.00000  20.94016             12.58132
1774.63300  1266.80471  297.00000  25.54474             14.86371
1776.66129  680.54435   248.00000  20.73950             15.35409
1782.13869  639.63504   274.00000  23.14656             15.28186
1778.06250  1459.26923  208.00000  19.37433             13.75435
1777.91613  319.85806   155.00000  18.36446             10.91265
1782.87023  739.74046   131.00000  15.44387             10.82345
1785.07653  202.81633   196.00000  20.78241             12.04875
1784.45909  283.69091   220.00000  18.91436             14.90456
1791.45050  605.25248   202.00000  20.24244             12.73322
1790.76415  1587.48113  106.00000  12.75128             10.83930
1793.50579  774.71815   259.00000  19.34211             17.90088
1796.26733  477.79703   202.00000  16.99552             15.16520
1796.36596  1453.43404  235.00000  22.40116             14.41959
1797.53488  737.18605   215.00000  20.10089             13.71249
1801.17526  1484.43299  194.00000  18.38879             13.59694
1808.34174  376.70028   357.00000  31.00978             15.97953
1807.26236  1049.53612  263.00000  24.23858             13.96384
1803.57282  1570.62136  103.00000  12.08328             11.08853
1811.51558  559.59773   353.00000  25.62584             17.76008
1805.14493  1326.43478  69.00000   10.88777             8.09062
1808.96450  1795.64497  169.00000  18.67395             11.58316
1812.91067  1651.93300  403.00000  28.10946             18.46332
1815.39482  827.45631   309.00000  23.24118             17.12969
1812.16327  1317.17347  98.00000   12.44138             10.05586
1817.46018  490.84956   226.00000  20.70524             14.03797
1815.32584  1677.79775  178.00000  16.51246             13.75373
1817.12022  540.09836   183.00000  15.63713             15.05078
1817.20645  455.98710   155.00000  15.59061             12.71689
1820.62500  1579.96591  176.00000  18.28502             12.66809
1818.69697  183.40606   165.00000  17.75467             11.84895
1821.23558  341.56250   208.00000  21.13231             12.57341
1822.68132  719.67582   182.00000  16.59362             13.96795
1827.38865  1198.75546  229.00000  21.35203             13.81984
1829.32661  435.52016   248.00000  20.18497             15.68897
1826.68493  1469.91096  146.00000  15.90861             11.84354
1830.94142  476.61088   239.00000  20.00741             15.29528
1832.58824  1083.09664  238.00000  19.57855             16.04729
1832.51531  1377.04592  196.00000  18.86534             13.31488
1831.84264  1683.60406  197.00000  16.82753             14.90889
1834.31429  1702.55102  245.00000  19.60532             16.07689
1834.22293  302.06369   157.00000  17.29514             11.65721
1839.11000  561.51500   200.00000  17.55836             14.69104
1842.70769  829.33846   260.00000  23.51524             14.20790
1838.39759  1735.18072  166.00000  15.15556             14.02680
1839.06494  687.20779   154.00000  16.37025             11.97984
1839.20126  1394.26415  159.00000  15.67868             12.96195
1846.04730  1718.97297  148.00000  14.84953             12.74641
1848.37600  763.80000   125.00000  17.01090             9.40208
1848.45385  502.09231   130.00000  14.67105             11.30442
1851.10046  229.18265   219.00000  18.69055             15.16289
1853.97200  442.46000   250.00000  21.71853             14.84787
1852.10185  575.61574   216.00000  17.79092             15.69593
1854.17699  1515.18142  226.00000  22.68852             12.76436
1854.64754  1226.88115  244.00000  20.36608             15.30003
1855.99115  266.01327   226.00000  20.79229             13.91868
1859.18561  1445.51515  264.00000  22.79304             14.88893
1863.08051  1498.06356  236.00000  18.41359             16.68528
1862.29101  1761.47619  189.00000  16.06095             15.00914
1867.21074  666.59091   242.00000  23.12989             13.42257
1866.03012  1199.97590  166.00000  16.88925             12.57774
1868.52227  830.88664   247.00000  19.12125             16.59259
1869.33772  621.40351   228.00000  18.97435             15.34516
1867.40146  1397.52555  137.00000  15.68539             11.20185
1870.40940  782.53020   149.00000  17.88051             10.61753
1874.25728  545.99029   206.00000  18.26333             14.38148
1872.80220  762.04396   91.00000   12.54631             9.32909
1875.10270  1175.35676  185.00000  18.35481             12.83949
1877.68449  699.93048   187.00000  17.35304             13.95807
1878.85204  1110.09184  196.00000  16.79865             15.10824
1881.13793  585.40805   174.00000  16.19731             13.72850
1878.48718  1201.10256  78.00000   10.85344             9.15289
1882.87075  688.59184   147.00000  15.44334             12.40086
1883.58621  953.51724   174.00000  18.49329             11.99381
1884.46154  1442.81868  182.00000  17.13807             13.75854
1888.49038  278.32692   208.00000  17.66979             15.15274
1886.67407  999.96296   135.00000  14.02004             12.28784
1887.95652  624.61739   115.00000  12.76883             11.50925
1890.85455  713.92727   275.00000  23.42727             15.57171
1895.00380  431.63498   263.00000  21.63808             15.54448
1893.19216  1152.64706  255.00000  20.67058             16.14864
1892.73446  1276.62712  177.00000  18.42506             12.34671
1896.39336  663.38389   211.00000  21.90993             12.30779
1894.01923  784.77564   156.00000  17.70976             11.28713
1896.76448  1313.66409  259.00000  22.78383             14.52131
1894.47222  727.75926   108.00000  14.94856             9.20793
1897.50000  960.39844   128.00000  15.25849             10.68941
1898.49107  55.83036    112.00000  14.86602             9.78905
1898.45263  993.00000   95.00000   12.01367             10.53186
1902.65347  1216.23762  202.00000  21.40719             12.15968
1901.68557  746.69072   194.00000  16.33607             15.16234
1902.95238  797.76871   147.00000  14.87490             12.63168
1903.22034  1016.42938  177.00000  15.79866             14.28239
1910.84804  844.16667   408.00000  29.26613             18.06126
1905.42405  1351.73418  158.00000  18.76553             10.97749
1907.95513  319.25000   156.00000  16.29848             12.28692
1907.73050  997.08511   141.00000  14.64213             12.40182
1907.86992  943.47154   123.00000  14.21029             11.11779
1908.58025  1435.88889  81.00000   11.32315             9.35074
1908.98077  906.84615   104.00000  12.54019             10.66506
1913.01961  760.76961   204.00000  17.16070             15.18862
1915.60690  582.82069   145.00000  15.64579             11.88225
1913.98361  913.91803   61.00000   10.55769             7.60697
1918.33010  1508.36893  206.00000  19.18851             14.15848
1918.28395  468.14815   243.00000  19.85841             16.12867
1915.37349  1016.65060  83.00000   10.77503             9.83736
1918.62500  381.83750   160.00000  17.73644             11.86365
1917.79167  889.89583   96.00000   11.91553             10.35143
1919.80978  347.61413   184.00000  16.83825             14.14640
1920.00000  429.32576   132.00000  14.65463             11.61628
1920.96923  1034.61538  195.00000  16.92982             14.70894
1923.25676  598.47297   222.00000  21.72657             13.06420
1922.48980  860.76531   98.00000   12.15551             10.24663
1927.55866  954.98324   179.00000  16.42877             13.95772
1926.96377  512.02174   138.00000  14.62713             12.05019
1926.95513  980.87179   156.00000  16.40822             12.27519
1931.05946  642.35676   185.00000  20.35089             11.60834
1933.87027  1059.48649  185.00000  19.40774             12.21772
1933.10828  422.02548   157.00000  16.63505             12.14643
1932.47407  1381.61481  135.00000  16.68224             10.32507
1936.25094  1616.35206  267.00000  19.67125             17.41278
1934.44000  905.76667   150.00000  14.34264             13.36762
1936.10465  497.84884   172.00000  17.69578             12.38124
1940.85167  477.63636   209.00000  19.65030             13.62487
1939.93252  1130.38037  163.00000  18.10705             11.68313
1939.72881  551.51695   118.00000  13.99816             10.82163
1943.00926  1371.20370  108.00000  12.65495             10.96467
1946.06286  799.84571   175.00000  17.76947             12.62589
1946.81553  720.87379   103.00000  14.90858             9.31034
1947.66029  1409.01914  209.00000  17.41368             15.35489
1947.29609  652.19553   179.00000  17.07283             13.69586
1947.48052  1531.92857  154.00000  15.60439             12.58734
1948.66000  1199.76667  150.00000  15.10255             12.64143
1953.22870  1457.20179  223.00000  22.32206             12.85882
1954.85714  1491.12857  280.00000  26.79781             14.11486
1952.35606  1167.32576  132.00000  15.73476             10.86947
1955.77895  1507.33684  190.00000  16.64109             14.58669
1955.67665  867.47904   167.00000  16.34737             13.17205
1958.88344  511.58896   163.00000  20.41593             10.19078
1959.80625  661.56250   160.00000  16.85435             12.14775
1960.71200  878.47200   125.00000  13.54924             11.83649
1963.76768  1099.57576  99.00000   13.34728             9.64448
1966.46988  1286.95181  83.00000   11.67459             9.03483
1970.32919  1049.11801  161.00000  17.79151             11.53616
1970.92414  1181.73793  145.00000  17.23407             10.82793
1971.76471  471.03268   153.00000  15.91159             12.35359
1979.03419  1534.82479  234.00000  26.88994             11.61980
1976.05435  237.55435   92.00000   11.48089             10.21120
1981.54839  1458.23387  124.00000  16.20886             9.79001
1981.92462  258.29648   199.00000  16.81460             15.35617
1982.57962  841.35669   157.00000  15.23557             13.26487
1983.03409  1058.46591  88.00000   11.42974             9.78200
1988.80247  155.81481   162.00000  17.00878             12.14308
1988.12903  1049.75269  93.00000   11.49269             10.36153
1988.00000  1281.83505  97.00000   12.41899             10.05004
1993.18898  295.51969   127.00000  13.46587             12.32556
2005.57364  1089.65891  129.00000  14.50010             11.45197
2011.19178  1009.84247  146.00000  19.93844             9.38925
2014.66216  1050.75676  222.00000  20.00980             14.28433
2014.88435  1349.80272  147.00000  16.05017             11.66209
2014.81513  1244.77311  119.00000  12.57416             12.12189
2017.07798  662.00459   218.00000  18.69387             14.93046
2018.26404  1228.11798  178.00000  17.07426             13.32680
2022.97163  275.34752   282.00000  23.54601             15.30431
2018.81928  1277.14458  83.00000   11.86807             8.97536
2022.96053  959.30263   152.00000  15.60598             12.49062
2024.30055  1019.68306  183.00000  15.85425             14.77611
2028.47020  1198.00000  151.00000  16.56089             11.61528
2029.89333  1208.62667  150.00000  16.94840             11.37218
2031.52229  939.16561   157.00000  16.85776             11.90326
2034.79032  957.20968   124.00000  14.21055             11.22246
2036.15517  333.64655   116.00000  14.34373             10.63555
2037.83766  794.01948   154.00000  17.55335             11.30557